File: raw data/Dataset_2/Ferrowodginite/Ferrowodginite__R120166__Raman__780__0__unoriented__Raman_Data_Processed__37255.txt
30, 0.0
36, 0.0
42, 0.0
48, 0.0
54, 0.0
60, 0.0
66, 0.0
72, 0.0
78, 0.0
84, 0.0
90, 0.0
96, 0.0
102, 0.0
108, 0.0
114, 0.0
120, 0.0
126, 0.0
132, 0.0
138, 0.0
144, 0.0
150, 0.0
156, 0.0
162, 0.0
168, 0.0
174, 0.0
180, 0.0
186, 0.0
192.0, 0.0177512
198.0, 0.00398302
204.0, 0.0404487
210.0, 0.114592
216.0, 0.218581
222.0, 0.306561
228.0, 0.295103
234.0, 0.347171
240.0, 0.304433
246.0, 0.232552
252.0, 0.163084
258.0, 0.100971
264.0, 0.101508
270.0, 0.201513
276.0, 0.371422
282.0, 0.621864
288.0, 0.688625
294.0, 0.669379
300.0, 0.633671
306.0, 0.606847
312.0, 0.404572
318.0, 0.174207
324.0, 0.0438543
330.0, 0.0114063
336.0, 0.0144627
342.0, 0.0147676
348.0, 0.0111236
354.0, 0.0339334
360.0, 0.126217
366.0, 0.177063
372.0, 0.293959
378.0, 0.42218
384.0, 0.541221
390.0, 0.625307
396.0, 0.684517
402.0, 0.702264
408.0, 0.635836
414.0, 0.558117
420.0, 0.441267
426.0, 0.312766
432.0, 0.215405
438.0, 0.148802
444.0, 0.117157
450.0, 0.0779261
456.0, 0.0848675
462.0, 0.086823
468.0, 0.101173
474.0, 0.0968894
480.0, 0.124899
486.0, 0.109905
492.0, 0.117316
498.0, 0.0832509
504.0, 0.0586144
510.0, 0.0550443
516.0, 0.0135232
522.0, 0.0109219
528.0, 0.00171602
534.0, 0.0249323
540.0, 0.0115039
546.0, 0.00624129
552.0, 0.0601507
558.0, 0.109725
564.0, 0.153694
570.0, 0.174927
576.0, 0.197986
582.0, 0.21006
588.0, 0.225216
594.0, 0.174144
600.0, 0.162832
606.0, 0.200896
612.0, 0.195821
618.0, 0.236751
624.0, 0.268617
630.0, 0.274043
636.0, 0.306183
642.0, 0.327424
648.0, 0.310768
654.0, 0.302283
660.0, 0.273023
666.0, 0.223392
672.0, 0.185912
678.0, 0.128275
684.0, 0.0869942
690.0, 0.0299607
696.0, 0.00763483
702.0, 0.0272115
708.0, 0.029137
714.0, 0.0388995
720.0, 0.010572
726.0, 0.0573017
732.0, 0.087896
738.0, 0.12631
744.0, 0.162996
750.0, 0.172096
756.0, 0.179008
762.0, 0.184592
768.0, 0.187733
774.0, 0.207628
780.0, 0.188487
786.0, 0.181758
792.0, 0.222805
798.0, 0.201962
804.0, 0.216027
810.0, 0.257747
816.0, 0.320813
822.0, 0.399569
828.0, 0.478031
834.0, 0.546844
840.0, 0.627101
846.0, 0.753129
852.0, 0.89744
858.0, 0.977813
864.0, 0.961664
870.0, 0.808333
876.0, 0.544501
882.0, 0.285457
888.0, 0.101245
894.0, 0.0163078
900.0, 0.0106108
906.0, 0.0236799
912.0, 0.0146185
918.0, 0.0207034
924.0, 0.024031
930.0, 0.0549808
936.0, 0.0832912
942.0, 0.0906316
948.0, 0.120185
954.0, 0.131384
960.0, 0.140732
966.0, 0.125349
972.0, 0.0873716
978.0, 0.0820662
984.0, 0.0749534
990.0, 0.0614472
996.0, 0.0598197
1002.0, 0.0472311
1008.0, 0.0505523
1014.0, 0.0308586
1020.0, 0.0302819
1026.0, 0.0288104
1032.0, 0.0186296
1038.0, 0.0163859
1044.0, 0.0085662
1050.0, 0.00449866
1056.0, 0.0209711
1062.0, 0.0107876
1068.0, 0.0114169
1074.0, 0.00495434
1080.0, 0.00993832
1086.0, 0.00803325
1092.0, 0.0110986
1098.0, 0.00343219
1104.0, 0.00223577
1110.0, 0.00421858
1116.0, 0.00326908
1122.0, 0.00452221
1128.0, 0.0146032
1134.0, 0.00272741
1140.0, 0.00418486
1146.0, 0.0174365
1152.0, 0.0184567
1158.0, 0.0128637
1164.0, 0.0119626
1170.0, 0.0227987
1176.0, 0.0054389
1182.0, 0.012506
1188.0, 0.00967761
1194.0, 0.0158077
1200.0, 0.0229946
1206.0, 0.0151832
1212.0, 0.0114678
1218.0, 0.00703954
1224.0, 0.0204855
1230.0, 0.00654767
1236.0, 0.0158803
1242.0, 0.00113609
1248.0, 0.0145842
1254.0, 0.00235251
1260.0, 0.0188935
1266.0, 0.0127655
1272.0, 0.00729757
1278.0, 0.000409397
1284, 0.0
1290, 0.0
1296, 0.0
1302, 0.0
1308, 0.0
1314, 0.0
1320, 0.0
1326, 0.0
1332, 0.0
1338, 0.0
1344, 0.0
1350, 0.0
1356, 0.0
1362, 0.0
1368, 0.0
1374, 0.0
1380, 0.0
1386, 0.0
1392, 0.0
1398, 0.0
1404, 0.0
1410, 0.0
1416, 0.0
1422, 0.0
1428, 0.0
1434, 0.0
1440, 0.0
1446, 0.0
1452, 0.0
1458, 0.0
1464, 0.0
1470, 0.0
1476, 0.0
1482, 0.0
1488, 0.0
1494, 0.0
1500, 0.0
1506, 0.0
1512, 0.0
1518, 0.0
1524, 0.0
1530, 0.0
1536, 0.0
1542, 0.0
1548, 0.0
1554, 0.0
1560, 0.0
1566, 0.0
1572, 0.0
1578, 0.0
1584, 0.0
1590, 0.0
1596, 0.0
1599, 0.0