File: raw data/Dataset_2/Perovskite/Perovskite__R130037__Raman__780__0__unoriented__Raman_Data_Processed__37548.txt
30, 0.0
36, 0.0
42, 0.0
48, 0.0
54, 0.0
60, 0.0
66, 0.0
72, 0.0
78, 0.0
84, 0.0
90, 0.0
96.0, 0.100366
102.0, 0.0172971
108.0, 0.0027918
114.0, 0.0642804
120.0, 0.0782211
126.0, 0.0603951
132.0, 0.0433964
138.0, 0.072342
144.0, 0.0533799
150.0, 0.034658
156.0, 0.0384387
162.0, 0.0414564
168.0, 0.0179791
174.0, 0.0106215
180.0, 0.0054644
186.0, 0.00591329
192.0, 0.0137356
198.0, 0.0354234
204.0, 0.0545702
210.0, 0.0850465
216.0, 0.110121
222.0, 0.161043
228.0, 0.23649
234.0, 0.291882
240.0, 0.265085
246.0, 0.146697
252.0, 0.060523
258.0, 0.0215923
264.0, 0.00953964
270.0, 0.0211042
276.0, 0.0331488
282.0, 0.0218954
288.0, 0.0231284
294.0, 0.0261861
300.0, 0.0272234
306.0, 0.0668302
312.0, 0.0746809
318.0, 0.115375
324.0, 0.144798
330.0, 0.154229
336.0, 0.143717
342.0, 0.115476
348.0, 0.104591
354.0, 0.0862612
360.0, 0.0776715
366.0, 0.05416
372.0, 0.0492668
378.0, 0.0363429
384.0, 0.0334186
390.0, 0.0182822
396.0, 0.00682424
402.0, 0.00796578
408.0, 0.0138458
414.0, 0.00726727
420.0, 0.00395581
426.0, 0.0110407
432.0, 0.00622376
438.0, 0.0487393
444.0, 0.117582
450.0, 0.185664
456.0, 0.298425
462.0, 0.282092
468.0, 0.160374
474.0, 0.1034
480.0, 0.0835269
486.0, 0.0656599
492.0, 0.0500206
498.0, 0.0731839
504.0, 0.0561183
510.0, 0.072386
516.0, 0.0700215
522.0, 0.0701247
528.0, 0.074841
534.0, 0.0776624
540.0, 0.0635003
546.0, 0.0626464
552.0, 0.0508791
558.0, 0.0564924
564.0, 0.0325355
570.0, 0.0344937
576.0, 0.0131089
582.0, 0.014599
588.0, 0.0106404
594.0, 0.0119018
600.0, 0.0035991
606.0, 0.00366833
612.0, 0.000283707
618.0, 0.00763421
624.0, 0.0265859
630.0, 0.0270678
636.0, 0.0517011
642.0, 0.0595822
648.0, 0.0467668
654.0, 0.02648
660.0, 0.0249159
666.0, 0.0124064
672.0, 0.0122392
678.0, 0.00994022
684.0, 0.0166211
690.0, 0.0156638
696.0, 0.0202997
702.0, 0.00245428
708.0, 0.0258444
714.0, 0.0665446
720.0, 0.118966
726.0, 0.200541
732.0, 0.310738
738.0, 0.4447
744.0, 0.577986
750.0, 0.721356
756.0, 0.827275
762.0, 0.929623
768.0, 0.975378
774.0, 0.962965
780.0, 0.941591
786.0, 0.880093
792.0, 0.813434
798.0, 0.720007
804.0, 0.614143
810.0, 0.548332
816.0, 0.477641
822.0, 0.419698
828.0, 0.355456
834.0, 0.273618
840.0, 0.188672
846.0, 0.131621
852.0, 0.0886906
858.0, 0.0469842
864.0, 0.0135823
870.0, 0.00189279
876.0, 0.00905322
882.0, 0.0055058
888.0, 0.00946023
894.0, 0.00185044
900.0, 0.0199082
906.0, 0.0160758
912.0, 0.0358157
918.0, 0.0529795
924.0, 0.0517924
930.0, 0.0660916
936.0, 0.0591014
942.0, 0.0661027
948.0, 0.0521228
954.0, 0.0525682
960.0, 0.0515805
966.0, 0.0456689
972.0, 0.0356445
978.0, 0.0334315
984.0, 0.0315026
990.0, 0.0242886
996.0, 0.0237745
1002.0, 0.016355
1008.0, 0.0275712
1014.0, 0.0136957
1020.0, 0.0191994
1026.0, 0.0100865
1032.0, 0.00192081
1038.0, 0.0113027
1044.0, 0.0207867
1050.0, 0.0180121
1056.0, 0.0133681
1062.0, 0.00665272
1068.0, 0.00186282
1074.0, 0.0103998
1080.0, 0.00839952
1086.0, 0.00933068
1092.0, 0.0141827
1098.0, 0.00518663
1104.0, 0.00492383
1110.0, 0.00381326
1116.0, 0.00372732
1122.0, 0.000947477
1128.0, 0.0089673
1134.0, 0.0035053
1140.0, 0.00525952
1146.0, 0.00779406
1152.0, 0.00897443
1158.0, 0.0103253
1164.0, 0.0120561
1170.0, 0.0211509
1176.0, 0.011848
1182.0, 0.0140639
1188.0, 0.010418
1194.0, 0.0139375
1200.0, 0.0112336
1206.0, 0.0159853
1212.0, 0.00769614
1218.0, 0.00714797
1224.0, 0.00710228
1230.0, 0.0114225
1236.0, 0.0083907
1242.0, 0.00395497
1248.0, 0.0167574
1254.0, 0.00522236
1260.0, 0.010504
1266.0, 0.00699108
1272.0, 0.00134992
1278.0, 0.00230234
1284, 0.0
1290, 0.0
1296, 0.0
1302, 0.0
1308, 0.0
1314, 0.0
1320, 0.0
1326, 0.0
1332, 0.0
1338, 0.0
1344, 0.0
1350, 0.0
1356, 0.0
1362, 0.0
1368, 0.0
1374, 0.0
1380, 0.0
1386, 0.0
1392, 0.0
1398, 0.0
1404, 0.0
1410, 0.0
1416, 0.0
1422, 0.0
1428, 0.0
1434, 0.0
1440, 0.0
1446, 0.0
1452, 0.0
1458, 0.0
1464, 0.0
1470, 0.0
1476, 0.0
1482, 0.0
1488, 0.0
1494, 0.0
1500, 0.0
1506, 0.0
1512, 0.0
1518, 0.0
1524, 0.0
1530, 0.0
1536, 0.0
1542, 0.0
1548, 0.0
1554, 0.0
1560, 0.0
1566, 0.0
1572, 0.0
1578, 0.0
1584, 0.0
1590, 0.0
1596, 0.0
1599, 0.0