File: raw data/Dataset_2/Perovskite/Perovskite__R120121__Raman__780__0__unoriented__Raman_Data_Processed__37140.txt
30, 0.0
36, 0.0
42, 0.0
48, 0.0
54, 0.0
60, 0.0
66, 0.0
72, 0.0
78, 0.0
84, 0.0
90, 0.0
96, 0.0
102.0, 0.000610773
108.0, 0.0253211
114.0, 0.0612128
120.0, 0.0891082
126.0, 0.103647
132.0, 0.110314
138.0, 0.107969
144.0, 0.108111
150.0, 0.0966207
156.0, 0.0846892
162.0, 0.0785055
168.0, 0.08846
174.0, 0.095969
180.0, 0.0518968
186.0, 0.0267465
192.0, 0.0115319
198.0, 0.000406285
204.0, 0.00327252
210.0, 0.000392921
216.0, 0.00941765
222.0, 0.00837673
228.0, 0.00241947
234.0, 0.0601002
240.0, 0.0853541
246.0, 0.0838339
252.0, 0.134564
258.0, 0.238038
264.0, 0.340977
270.0, 0.440889
276.0, 0.494701
282.0, 0.466394
288.0, 0.341034
294.0, 0.22146
300.0, 0.123442
306.0, 0.0860651
312.0, 0.0812966
318.0, 0.063399
324.0, 0.0143068
330.0, 0.0185226
336.0, 0.00854208
342.0, 0.0690452
348.0, 0.2154
354.0, 0.414012
360.0, 0.615397
366.0, 0.724789
372.0, 0.725847
378.0, 0.635997
384.0, 0.557147
390.0, 0.48901
396.0, 0.491621
402.0, 0.594718
408.0, 0.73103
414.0, 0.893353
420.0, 0.991405
426.0, 0.951546
432.0, 0.769111
438.0, 0.50031
444.0, 0.238741
450.0, 0.0525498
456.0, 0.0290039
462.0, 0.0132686
468.0, 0.0599304
474.0, 0.151122
480.0, 0.227322
486.0, 0.266279
492.0, 0.305076
498.0, 0.350417
504.0, 0.386617
510.0, 0.386364
516.0, 0.3211
522.0, 0.21255
528.0, 0.0945372
534.0, 0.0146689
540.0, 0.0050559
546.0, 0.0396453
552.0, 0.149649
558.0, 0.274262
564.0, 0.358333
570.0, 0.372626
576.0, 0.332627
582.0, 0.270644
588.0, 0.222369
594.0, 0.159069
600.0, 0.1092
606.0, 0.0820329
612.0, 0.0533996
618.0, 0.0280907
624.0, 0.0134316
630.0, 0.0011057
636.0, 0.00945667
642.0, 0.00891194
648.0, 0.0043015
654.0, 0.00175986
660.0, 0.0235025
666.0, 0.0416312
672.0, 0.0652661
678.0, 0.0912352
684.0, 0.117909
690.0, 0.14358
696.0, 0.162961
702.0, 0.181348
708.0, 0.193559
714.0, 0.195904
720.0, 0.188693
726.0, 0.179938
732.0, 0.166222
738.0, 0.150313
744.0, 0.124331
750.0, 0.101439
756.0, 0.085792
762.0, 0.0677007
768.0, 0.0499672
774.0, 0.0351127
780.0, 0.0250789
786.0, 0.016024
792.0, 0.00466524
798.0, 6.34309e-05
804.0, 0.00587916
810.0, 0.00627158
816.0, 0.000679318
822.0, 0.00812542
828.0, 0.0237553
834.0, 0.0400453
840.0, 0.0722298
846.0, 0.114738
852.0, 0.158588
858.0, 0.207536
864.0, 0.247875
870.0, 0.273003
876.0, 0.279268
882.0, 0.277426
888.0, 0.250263
894.0, 0.224498
900.0, 0.188733
906.0, 0.153009
912.0, 0.118998
918.0, 0.0948607
924.0, 0.0653888
930.0, 0.0379339
936.0, 0.0155139
942.0, 0.00204426
948.0, 0.00474676
954.0, 0.00194703
960.0, 0.00419052
966.0, 0.0137951
972.0, 0.0290032
978.0, 0.0454055
984.0, 0.0659263
990.0, 0.0886761
996.0, 0.116875
1002.0, 0.129969
1008.0, 0.12997
1014.0, 0.11857
1020.0, 0.101813
1026.0, 0.0787235
1032.0, 0.0553795
1038.0, 0.0374032
1044.0, 0.0180917
1050.0, 0.00894122
1056.0, 0.00291264
1062.0, 0.000813376
1068.0, 0.000953819
1074.0, 0.00065633
1080.0, 0.0015812
1086.0, 0.00752339
1092.0, 0.00992982
1098.0, 0.0122062
1104.0, 0.0139797
1110.0, 0.0166166
1116.0, 0.0141299
1122.0, 0.0155511
1128.0, 0.0168315
1134.0, 0.0154713
1140.0, 0.0196734
1146.0, 0.0225872
1152.0, 0.0273952
1158.0, 0.0310689
1164.0, 0.0392627
1170.0, 0.0464726
1176.0, 0.0607531
1182.0, 0.067562
1188.0, 0.067633
1194.0, 0.0711692
1200.0, 0.0719814
1206.0, 0.0625126
1212.0, 0.0513984
1218.0, 0.0307794
1224.0, 0.00879178
1230.0, 0.00544086
1236.0, 0.00476809
1242.0, 0.00863888
1248.0, 0.0154594
1254.0, 0.0305523
1260.0, 0.0227853
1266.0, 0.0186095
1272.0, 0.0180385
1278.0, 0.0104249
1284, 0.0
1290, 0.0
1296, 0.0
1302, 0.0
1308, 0.0
1314, 0.0
1320, 0.0
1326, 0.0
1332, 0.0
1338, 0.0
1344, 0.0
1350, 0.0
1356, 0.0
1362, 0.0
1368, 0.0
1374, 0.0
1380, 0.0
1386, 0.0
1392, 0.0
1398, 0.0
1404, 0.0
1410, 0.0
1416, 0.0
1422, 0.0
1428, 0.0
1434, 0.0
1440, 0.0
1446, 0.0
1452, 0.0
1458, 0.0
1464, 0.0
1470, 0.0
1476, 0.0
1482, 0.0
1488, 0.0
1494, 0.0
1500, 0.0
1506, 0.0
1512, 0.0
1518, 0.0
1524, 0.0
1530, 0.0
1536, 0.0
1542, 0.0
1548, 0.0
1554, 0.0
1560, 0.0
1566, 0.0
1572, 0.0
1578, 0.0
1584, 0.0
1590, 0.0
1596, 0.0
1599, 0.0