File: raw data/Dataset_2/Perovskite/Perovskite__R130037__Raman__532__0__unoriented__Raman_Data_Processed__37778.txt
30, 0.0
36, 0.0
42, 0.0
48, 0.0
54, 0.0
60, 0.0
66, 0.0
72, 0.0
78, 0.0
84, 0.0
90, 0.0
96, 0.0
102, 0.0
108, 0.0
114, 0.0
120, 0.0
126, 0.0
132, 0.0
138, 0.0
144, 0.0
150, 0.0
156, 0.0
162, 0.0
168, 0.0
174, 0.0
180.0, 0.00125685
186.0, 0.0417986
192.0, 0.0945712
198.0, 0.167273
204.0, 0.205901
210.0, 0.219792
216.0, 0.297031
222.0, 0.428159
228.0, 0.612936
234.0, 0.831272
240.0, 0.987847
246.0, 0.793702
252.0, 0.384226
258.0, 0.189457
264.0, 0.0957949
270.0, 0.0398271
276.0, 0.0369361
282.0, 0.0208464
288.0, 0.00798102
294.0, 0.0126428
300.0, 0.023439
306.0, 0.0833862
312.0, 0.115644
318.0, 0.218445
324.0, 0.260586
330.0, 0.32637
336.0, 0.328749
342.0, 0.275874
348.0, 0.219159
354.0, 0.135136
360.0, 0.101967
366.0, 0.0922117
372.0, 0.078519
378.0, 0.0408209
384.0, 0.0343481
390.0, 0.0140869
396.0, 0.0166228
402.0, 0.0176856
408.0, 0.0117913
414.0, 0.00167817
420.0, 0.0117071
426.0, 0.00401772
432.0, 0.0212417
438.0, 0.0776754
444.0, 0.187123
450.0, 0.373071
456.0, 0.669681
462.0, 0.781842
468.0, 0.393042
474.0, 0.162207
480.0, 0.075018
486.0, 0.0590245
492.0, 0.0690625
498.0, 0.0684354
504.0, 0.0996209
510.0, 0.106706
516.0, 0.133893
522.0, 0.149073
528.0, 0.155646
534.0, 0.157834
540.0, 0.143588
546.0, 0.131159
552.0, 0.109149
558.0, 0.112737
564.0, 0.0966288
570.0, 0.063907
576.0, 0.0505095
582.0, 0.0319132
588.0, 0.0346218
594.0, 0.0178065
600.0, 0.00178568
606.0, 0.00346702
612.0, 0.00191139
618.0, 0.00694847
624.0, 0.00416019
630.0, 0.00660195
636.0, 0.0196931
642.0, 0.0369556
648.0, 0.0389256
654.0, 0.0214905
660.0, 0.034167
666.0, 0.0251453
672.0, 0.01853
678.0, 0.0160194
684.0, 0.0117829
690.0, 0.00774082
696.0, 0.00279467
702.0, 0.0165052
708.0, 0.00413665
714.0, 0.00996674
720.0, 0.0203572
726.0, 0.0172175
732.0, 0.0410581
738.0, 0.0833038
744.0, 0.118712
750.0, 0.178567
756.0, 0.248609
762.0, 0.326691
768.0, 0.400499
774.0, 0.500262
780.0, 0.545085
786.0, 0.580928
792.0, 0.613747
798.0, 0.600988
804.0, 0.573228
810.0, 0.551497
816.0, 0.536774
822.0, 0.503693
828.0, 0.469428
834.0, 0.376679
840.0, 0.323598
846.0, 0.243121
852.0, 0.171204
858.0, 0.112794
864.0, 0.0688472
870.0, 0.0341177
876.0, 0.0146216
882.0, 0.00691623
888.0, 0.0123402
894.0, 0.00219666
900.0, 0.0011869
906.0, 0.0119826
912.0, 0.00241768
918.0, 0.0114469
924.0, 0.0169542
930.0, 0.0246317
936.0, 0.0271471
942.0, 0.030822
948.0, 0.0267539
954.0, 0.0142807
960.0, 0.0251064
966.0, 0.0205508
972.0, 0.0159253
978.0, 0.024245
984.0, 0.0241712
990.0, 0.0229432
996.0, 0.0211122
1002.0, 0.0127348
1008.0, 0.0194087
1014.0, 0.0126099
1020.0, 0.0118632
1026.0, 0.014177
1032.0, 0.0179184
1038.0, 0.0177544
1044.0, 0.0212487
1050.0, 0.0108838
1056.0, 0.0102298
1062.0, 0.00921532
1068.0, 0.00189461
1074.0, 0.00752684
1080.0, 0.00814926
1086.0, 0.0138978
1092.0, 0.00825404
1098.0, 0.00263912
1104.0, 0.0100021
1110.0, 0.00732045
1116.0, 0.012228
1122.0, 0.0207652
1128.0, 0.00807356
1134.0, 0.00655264
1140.0, 0.00200485
1146.0, 0.0128268
1152.0, 0.00702521
1158.0, 0.00906659
1164.0, 0.0051454
1170.0, 0.00312353
1176.0, 0.00554793
1182.0, 0.00939766
1188.0, 0.0139938
1194.0, 0.00835597
1200.0, 0.00870789
1206.0, 0.00596586
1212.0, 0.012684
1218.0, 0.00355708
1224.0, 0.0101369
1230.0, 0.0151365
1236.0, 0.00142111
1242.0, 0.0103357
1248.0, 0.0208899
1254.0, 0.00362738
1260.0, 0.013719
1266.0, 0.0172076
1272.0, 0.01098
1278.0, 0.0210623
1284.0, 0.00492191
1290.0, 0.0142222
1296.0, 0.00305546
1302, 0.0
1308, 0.0
1314, 0.0
1320, 0.0
1326, 0.0
1332, 0.0
1338, 0.0
1344, 0.0
1350, 0.0
1356, 0.0
1362, 0.0
1368, 0.0
1374, 0.0
1380, 0.0
1386, 0.0
1392, 0.0
1398, 0.0
1404, 0.0
1410, 0.0
1416, 0.0
1422, 0.0
1428, 0.0
1434, 0.0
1440, 0.0
1446, 0.0
1452, 0.0
1458, 0.0
1464, 0.0
1470, 0.0
1476, 0.0
1482, 0.0
1488, 0.0
1494, 0.0
1500, 0.0
1506, 0.0
1512, 0.0
1518, 0.0
1524, 0.0
1530, 0.0
1536, 0.0
1542, 0.0
1548, 0.0
1554, 0.0
1560, 0.0
1566, 0.0
1572, 0.0
1578, 0.0
1584, 0.0
1590, 0.0
1596, 0.0
1599, 0.0