File: raw data/Dataset_2/Perovskite/Perovskite__R050456__Raman__532__0__unoriented__Raman_Data_Processed__30866.txt
30, 0.0
36, 0.0
42, 0.0
48, 0.0
54, 0.0
60, 0.0
66, 0.0
72, 0.0
78, 0.0
84, 0.0
90, 0.0
96, 0.0
102, 0.0
108, 0.0
114, 0.0
120, 0.0
126, 0.0
132, 0.0
138, 0.0
144, 0.0
150, 0.0
156, 0.0
162, 0.0
168.0, 0.0184662
174.0, 0.10319
180.0, 0.144236
186.0, 0.0778433
192.0, 0.0175919
198.0, 0.00580252
204.0, 0.0194149
210.0, 0.0283993
216.0, 0.101408
222.0, 0.168358
228.0, 0.178616
234.0, 0.252887
240.0, 0.407446
246.0, 0.364482
252.0, 0.107391
258.0, 0.00586586
264.0, 0.0267285
270.0, 0.0287094
276.0, 0.159587
282.0, 0.240793
288.0, 0.227451
294.0, 0.206101
300.0, 0.165784
306.0, 0.163416
312.0, 0.161363
318.0, 0.185072
324.0, 0.241808
330.0, 0.338458
336.0, 0.380071
342.0, 0.336477
348.0, 0.279832
354.0, 0.239138
360.0, 0.215945
366.0, 0.185178
372.0, 0.181798
378.0, 0.180826
384.0, 0.198327
390.0, 0.177784
396.0, 0.152705
402.0, 0.127028
408.0, 0.0866924
414.0, 0.0550178
420.0, 0.0149277
426.0, 0.0104602
432.0, 0.0268954
438.0, 0.0171594
444.0, 0.0107451
450.0, 0.064229
456.0, 0.143952
462.0, 0.241398
468.0, 0.228004
474.0, 0.171627
480.0, 0.212131
486.0, 0.263468
492.0, 0.278475
498.0, 0.284733
504.0, 0.298939
510.0, 0.309633
516.0, 0.30533
522.0, 0.314524
528.0, 0.314514
534.0, 0.286175
540.0, 0.250782
546.0, 0.200149
552.0, 0.146518
558.0, 0.106216
564.0, 0.0703318
570.0, 0.036116
576.0, 0.0130488
582.0, 0.00769608
588.0, 0.0110473
594.0, 0.00640376
600.0, 0.0045563
606.0, 0.0159575
612.0, 0.0488155
618.0, 0.0564121
624.0, 0.0903497
630.0, 0.109585
636.0, 0.122683
642.0, 0.136871
648.0, 0.135323
654.0, 0.125818
660.0, 0.100493
666.0, 0.0790129
672.0, 0.0639026
678.0, 0.0473142
684.0, 0.0300619
690.0, 0.0139792
696.0, 0.00328944
702.0, 0.0149642
708.0, 0.016888
714.0, 0.00449961
720.0, 0.0152895
726.0, 0.0525648
732.0, 0.101964
738.0, 0.163331
744.0, 0.262961
750.0, 0.373614
756.0, 0.506778
762.0, 0.657305
768.0, 0.764527
774.0, 0.874774
780.0, 0.964122
786.0, 0.999439
792.0, 0.982728
798.0, 0.903515
804.0, 0.76705
810.0, 0.627143
816.0, 0.506547
822.0, 0.425975
828.0, 0.368669
834.0, 0.333833
840.0, 0.277176
846.0, 0.205055
852.0, 0.119449
858.0, 0.0673988
864.0, 0.0347575
870.0, 0.000308738
876.0, 0.00930843
882.0, 0.0100421
888.0, 0.00753134
894.0, 0.00704267
900.0, 0.000849433
906.0, 0.00950233
912.0, 0.0178909
918.0, 0.0263315
924.0, 0.028357
930.0, 0.032437
936.0, 0.0304945
942.0, 0.0293878
948.0, 0.0247762
954.0, 0.0202105
960.0, 0.0153581
966.0, 0.00999369
972.0, 0.0110129
978.0, 0.017914
984.0, 0.0106121
990.0, 0.0105282
996.0, 0.0114294
1002.0, 0.0163864
1008.0, 0.0116625
1014.0, 0.0175197
1020.0, 0.0218488
1026.0, 0.0253838
1032.0, 0.0194564
1038.0, 0.0243865
1044.0, 0.0205227
1050.0, 0.0191442
1056.0, 0.0149375
1062.0, 0.0166985
1068.0, 0.0152959
1074.0, 0.0121747
1080.0, 0.012044
1086.0, 0.00631943
1092.0, 0.00198781
1098.0, 0.00185898
1104.0, 0.00333373
1110.0, 0.000195365
1116.0, 0.00218285
1122.0, 0.00348131
1128.0, 0.00301672
1134.0, 0.00138873
1140.0, 0.000460789
1146.0, 0.00327869
1152.0, 0.00229964
1158.0, 0.00346493
1164.0, 0.00118663
1170.0, 0.00527145
1176.0, 0.00139731
1182.0, 0.00621198
1188.0, 0.00596815
1194.0, 0.00540486
1200.0, 0.0060266
1206.0, 0.00611044
1212.0, 0.00282451
1218.0, 0.00330252
1224.0, 0.00439759
1230.0, 0.00313071
1236.0, 0.000916259
1242.0, 0.00215919
1248.0, 0.00505047
1254.0, 0.000318925
1260.0, 0.00512817
1266.0, 0.000672414
1272.0, 0.00261277
1278.0, 0.00582861
1284.0, 0.000702268
1290, 0.0
1296, 0.0
1302, 0.0
1308, 0.0
1314, 0.0
1320, 0.0
1326, 0.0
1332, 0.0
1338, 0.0
1344, 0.0
1350, 0.0
1356, 0.0
1362, 0.0
1368, 0.0
1374, 0.0
1380, 0.0
1386, 0.0
1392, 0.0
1398, 0.0
1404, 0.0
1410, 0.0
1416, 0.0
1422, 0.0
1428, 0.0
1434, 0.0
1440, 0.0
1446, 0.0
1452, 0.0
1458, 0.0
1464, 0.0
1470, 0.0
1476, 0.0
1482, 0.0
1488, 0.0
1494, 0.0
1500, 0.0
1506, 0.0
1512, 0.0
1518, 0.0
1524, 0.0
1530, 0.0
1536, 0.0
1542, 0.0
1548, 0.0
1554, 0.0
1560, 0.0
1566, 0.0
1572, 0.0
1578, 0.0
1584, 0.0
1590, 0.0
1596, 0.0
1599, 0.0