File: raw data/Dataset_2/Perovskite/Perovskite__R120121__Raman__532__0__unoriented__Raman_Data_Processed__37138.txt
30, 0.0
36, 0.0
42, 0.0
48, 0.0
54, 0.0
60, 0.0
66, 0.0
72, 0.0
78, 0.0
84, 0.0
90, 0.0
96, 0.0
102, 0.0
108, 0.0
114, 0.0
120, 0.0
126, 0.0
132, 0.0
138, 0.0
144, 0.0
150, 0.0
156, 0.0
162, 0.0
168, 0.0
174, 0.0
180, 0.0
186, 0.0
192, 0.0
198, 0.0
204.0, 0.00808633
210.0, 0.0858889
216.0, 0.246548
222.0, 0.320715
228.0, 0.32702
234.0, 0.691144
240.0, 0.991232
246.0, 0.515092
252.0, 0.122561
258.0, 0.010466
264.0, 0.0267842
270.0, 0.0526593
276.0, 0.103185
282.0, 0.087684
288.0, 0.0816748
294.0, 0.0599521
300.0, 0.0610945
306.0, 0.05394
312.0, 0.0724119
318.0, 0.112146
324.0, 0.212254
330.0, 0.317278
336.0, 0.31119
342.0, 0.29364
348.0, 0.253427
354.0, 0.198851
360.0, 0.158725
366.0, 0.147718
372.0, 0.156971
378.0, 0.17714
384.0, 0.190907
390.0, 0.202669
396.0, 0.219331
402.0, 0.182289
408.0, 0.12872
414.0, 0.0562745
420.0, 0.00120624
426.0, 0.0259426
432.0, 0.00607245
438.0, 0.0300739
444.0, 0.0435967
450.0, 0.0890694
456.0, 0.181108
462.0, 0.31991
468.0, 0.366322
474.0, 0.2336
480.0, 0.156688
486.0, 0.139114
492.0, 0.131639
498.0, 0.111335
504.0, 0.0812178
510.0, 0.0668908
516.0, 0.0586044
522.0, 0.0650096
528.0, 0.0793439
534.0, 0.0731569
540.0, 0.0521212
546.0, 0.0250418
552.0, 0.0168942
558.0, 0.00403966
564.0, 0.0111516
570.0, 0.00578786
576.0, 0.000659754
582.0, 0.0163559
588.0, 0.0355653
594.0, 0.0543605
600.0, 0.0786389
606.0, 0.1045
612.0, 0.138771
618.0, 0.176971
624.0, 0.201204
630.0, 0.215862
636.0, 0.223832
642.0, 0.22111
648.0, 0.210479
654.0, 0.200944
660.0, 0.192098
666.0, 0.174616
672.0, 0.154842
678.0, 0.127986
684.0, 0.0952375
690.0, 0.0659701
696.0, 0.0338134
702.0, 0.00504376
708.0, 0.00646524
714.0, 0.0147758
720.0, 0.00581635
726.0, 0.0109169
732.0, 0.0469067
738.0, 0.0884139
744.0, 0.148351
750.0, 0.214861
756.0, 0.297541
762.0, 0.400135
768.0, 0.514002
774.0, 0.621361
780.0, 0.711159
786.0, 0.766512
792.0, 0.767507
798.0, 0.707298
804.0, 0.601769
810.0, 0.476793
816.0, 0.360522
822.0, 0.268945
828.0, 0.190859
834.0, 0.139595
840.0, 0.0990374
846.0, 0.0693125
852.0, 0.0390417
858.0, 0.0174692
864.0, 0.00132168
870.0, 0.00064025
876.0, 0.00673263
882.0, 0.00668882
888.0, 0.00177493
894.0, 0.00151743
900.0, 0.00865909
906.0, 0.013464
912.0, 0.0184954
918.0, 0.0242096
924.0, 0.0277907
930.0, 0.0301388
936.0, 0.0268352
942.0, 0.0249487
948.0, 0.0159357
954.0, 0.0106409
960.0, 0.00889791
966.0, 0.00818299
972.0, 0.00919043
978.0, 0.00725011
984.0, 0.00471194
990.0, 0.00722161
996.0, 0.00896647
1002.0, 0.0072089
1008.0, 0.0123767
1014.0, 0.016842
1020.0, 0.0321398
1026.0, 0.0178238
1032.0, 0.0201163
1038.0, 0.018089
1044.0, 0.0189593
1050.0, 0.0205497
1056.0, 0.0151656
1062.0, 0.0160314
1068.0, 0.0112861
1074.0, 0.01076
1080.0, 0.00761761
1086.0, 0.00903894
1092.0, 0.00585701
1098.0, 0.00296761
1104.0, 0.000659373
1110.0, 0.000269251
1116.0, 0.000875979
1122.0, 0.000163516
1128.0, 4.43873e-05
1134.0, 0.00133414
1140.0, 0.00064314
1146.0, 0.0023154
1152.0, 0.00346495
1158.0, 0.0028069
1164.0, 0.00365281
1170.0, 0.00257259
1176.0, 0.00584641
1182.0, 0.00612441
1188.0, 0.00558437
1194.0, 0.00493905
1200.0, 0.00496626
1206.0, 0.00589532
1212.0, 0.00564579
1218.0, 0.00248697
1224.0, 0.00383942
1230.0, 0.00225876
1236.0, 0.000772115
1242.0, 0.00145357
1248.0, 0.00255419
1254.0, 0.00376194
1260.0, 0.00270168
1266.0, 0.00446051
1272.0, 0.00212979
1278.0, 0.00219696
1284.0, 0.00371385
1290.0, 0.00282548
1296.0, 0.000487137
1302, 0.0
1308, 0.0
1314, 0.0
1320, 0.0
1326, 0.0
1332, 0.0
1338, 0.0
1344, 0.0
1350, 0.0
1356, 0.0
1362, 0.0
1368, 0.0
1374, 0.0
1380, 0.0
1386, 0.0
1392, 0.0
1398, 0.0
1404, 0.0
1410, 0.0
1416, 0.0
1422, 0.0
1428, 0.0
1434, 0.0
1440, 0.0
1446, 0.0
1452, 0.0
1458, 0.0
1464, 0.0
1470, 0.0
1476, 0.0
1482, 0.0
1488, 0.0
1494, 0.0
1500, 0.0
1506, 0.0
1512, 0.0
1518, 0.0
1524, 0.0
1530, 0.0
1536, 0.0
1542, 0.0
1548, 0.0
1554, 0.0
1560, 0.0
1566, 0.0
1572, 0.0
1578, 0.0
1584, 0.0
1590, 0.0
1596, 0.0
1599, 0.0