File: raw data/Dataset_2/Ferronigerite2N1S/Ferronigerite2N1S__R120083__Raman__532__0__unoriented__Raman_Data_Processed__36512.txt
30, 0.0
36, 0.0
42, 0.0
48, 0.0
54, 0.0
60, 0.0
66, 0.0
72, 0.0
78, 0.0
84, 0.0
90, 0.0
96, 0.0
102, 0.0
108, 0.0
114, 0.0
120, 0.0
126, 0.0
132, 0.0
138, 0.0
144, 0.0
150, 0.0
156, 0.0
162, 0.0
168, 0.0
174, 0.0
180, 0.0
186, 0.0
192, 0.0
198, 0.0
204.0, 0.0125099
210.0, 0.0330838
216.0, 0.0226075
222.0, 0.00210414
228.0, 0.00243737
234.0, 0.011504
240.0, 0.0144321
246.0, 0.00401727
252.0, 0.0312656
258.0, 0.0853879
264.0, 0.150668
270.0, 0.173168
276.0, 0.0944686
282.0, 0.0465758
288.0, 0.0162395
294.0, 0.0159528
300.0, 0.013721
306.0, 0.0169755
312.0, 0.0112133
318.0, 0.0218942
324.0, 0.0534189
330.0, 0.0808076
336.0, 0.0853501
342.0, 0.0690402
348.0, 0.0424467
354.0, 0.034515
360.0, 0.0234393
366.0, 0.0203223
372.0, 0.0144758
378.0, 0.00464805
384.0, 0.0207004
390.0, 0.0089725
396.0, 0.00973648
402.0, 0.0289886
408.0, 0.0554925
414.0, 0.0865491
420.0, 0.100986
426.0, 0.122276
432.0, 0.146223
438.0, 0.174105
444.0, 0.232004
450.0, 0.338185
456.0, 0.541029
462.0, 0.836247
468.0, 0.986548
474.0, 0.802204
480.0, 0.724284
486.0, 0.871758
492.0, 0.986586
498.0, 0.548837
504.0, 0.228162
510.0, 0.072635
516.0, 0.0390801
522.0, 0.0224084
528.0, 0.036817
534.0, 0.0505114
540.0, 0.0567829
546.0, 0.0591674
552.0, 0.0558837
558.0, 0.0239136
564.0, 0.000457712
570.0, 0.00298002
576.0, 0.00126731
582.0, 0.0300508
588.0, 0.0486551
594.0, 0.015641
600.0, 0.00719056
606.0, 0.00655264
612.0, 0.0017806
618.0, 0.01034
624.0, 0.0114347
630.0, 0.00691548
636.0, 0.0121566
642.0, 0.0322339
648.0, 0.0298802
654.0, 0.0452073
660.0, 0.0497432
666.0, 0.0715799
672.0, 0.126318
678.0, 0.170142
684.0, 0.20119
690.0, 0.192777
696.0, 0.200162
702.0, 0.201502
708.0, 0.213443
714.0, 0.200702
720.0, 0.171156
726.0, 0.156435
732.0, 0.122746
738.0, 0.0663064
744.0, 0.0694065
750.0, 0.146424
756.0, 0.304572
762.0, 0.370384
768.0, 0.259286
774.0, 0.101504
780.0, 0.00907037
786.0, 0.0172821
792.0, 0.00176634
798.0, 0.0505567
804.0, 0.084056
810.0, 0.113863
816.0, 0.132855
822.0, 0.157292
828.0, 0.163378
834.0, 0.176342
840.0, 0.170215
846.0, 0.215538
852.0, 0.345331
858.0, 0.506539
864.0, 0.549429
870.0, 0.421212
876.0, 0.268861
882.0, 0.158404
888.0, 0.0901979
894.0, 0.0477755
900.0, 0.0114889
906.0, 0.00268834
912.0, 0.0122411
918.0, 0.00343538
924.0, 0.00376926
930.0, 0.013249
936.0, 0.0165259
942.0, 0.0463976
948.0, 0.0650338
954.0, 0.110247
960.0, 0.158241
966.0, 0.194258
972.0, 0.199736
978.0, 0.164028
984.0, 0.133523
990.0, 0.0797328
996.0, 0.0382071
1002.0, 0.0142006
1008.0, 0.00847898
1014.0, 0.00913418
1020.0, 0.00180922
1026.0, 0.00280034
1032.0, 0.00416083
1038.0, 0.00812265
1044.0, 0.000699159
1050.0, 0.010681
1056.0, 0.00541226
1062.0, 0.00498501
1068.0, 0.012834
1074.0, 0.012813
1080.0, 0.00923726
1086.0, 0.000430755
1092.0, 0.00285802
1098.0, 0.00486806
1104.0, 0.00279106
1110.0, 0.0118568
1116.0, 0.0076344
1122.0, 0.00457591
1128.0, 0.000184615
1134.0, 0.0020216
1140.0, 0.00217078
1146.0, 0.00810047
1152.0, 0.00541581
1158.0, 0.00807818
1164.0, 0.00850699
1170.0, 0.0126879
1176.0, 0.00796739
1182.0, 0.0055604
1188.0, 0.0219919
1194.0, 0.00900744
1200.0, 0.0151547
1206.0, 0.00813991
1212.0, 0.015136
1218.0, 0.0166268
1224.0, 0.00812237
1230.0, 0.0124211
1236.0, 0.00170408
1242.0, 0.00383263
1248.0, 0.0125048
1254.0, 0.00783398
1260.0, 0.0196269
1266.0, 0.0103494
1272.0, 0.0158335
1278.0, 0.00868956
1284.0, 0.00466148
1290.0, 0.00829506
1296.0, 0.00492977
1302.0, 0.00519666
1308, 0.0
1314, 0.0
1320, 0.0
1326, 0.0
1332, 0.0
1338, 0.0
1344, 0.0
1350, 0.0
1356, 0.0
1362, 0.0
1368, 0.0
1374, 0.0
1380, 0.0
1386, 0.0
1392, 0.0
1398, 0.0
1404, 0.0
1410, 0.0
1416, 0.0
1422, 0.0
1428, 0.0
1434, 0.0
1440, 0.0
1446, 0.0
1452, 0.0
1458, 0.0
1464, 0.0
1470, 0.0
1476, 0.0
1482, 0.0
1488, 0.0
1494, 0.0
1500, 0.0
1506, 0.0
1512, 0.0
1518, 0.0
1524, 0.0
1530, 0.0
1536, 0.0
1542, 0.0
1548, 0.0
1554, 0.0
1560, 0.0
1566, 0.0
1572, 0.0
1578, 0.0
1584, 0.0
1590, 0.0
1596, 0.0
1599, 0.0