File: raw data/Dataset_2/Ferronigerite2N1S/Ferronigerite2N1S__R120083__Raman__780__0__unoriented__Raman_Data_Processed__36510.txt
30, 0.0
36, 0.0
42, 0.0
48, 0.0
54, 0.0
60, 0.0
66, 0.0
72, 0.0
78, 0.0
84, 0.0
90, 0.0
96, 0.0
102, 0.0
108, 0.0
114, 0.0
120, 0.0
126.0, 0.0662107
132.0, 0.0190785
138.0, 0.00427221
144.0, 0.0102924
150.0, 0.00339341
156.0, 0.00232758
162.0, 0.00499968
168.0, 0.0184831
174.0, 0.0170272
180.0, 0.0584897
186.0, 0.118719
192.0, 0.21762
198.0, 0.333109
204.0, 0.424282
210.0, 0.454023
216.0, 0.452145
222.0, 0.440405
228.0, 0.395264
234.0, 0.324281
240.0, 0.237255
246.0, 0.156065
252.0, 0.137587
258.0, 0.161257
264.0, 0.241998
270.0, 0.237512
276.0, 0.104054
282.0, 0.0273807
288.0, 0.00215984
294.0, 0.00218029
300.0, 0.00357306
306.0, 0.00587061
312.0, 0.0118329
318.0, 0.0331651
324.0, 0.0553583
330.0, 0.0795937
336.0, 0.075418
342.0, 0.0635526
348.0, 0.0517571
354.0, 0.047876
360.0, 0.0309669
366.0, 0.0210224
372.0, 0.0197966
378.0, 0.00309096
384.0, 0.00286718
390.0, 0.00662276
396.0, 0.00651544
402.0, 0.0123893
408.0, 0.0160922
414.0, 0.0309142
420.0, 0.0474673
426.0, 0.0641377
432.0, 0.0843272
438.0, 0.119535
444.0, 0.190071
450.0, 0.337613
456.0, 0.55014
462.0, 0.891642
468.0, 0.936505
474.0, 0.686932
480.0, 0.595693
486.0, 0.689584
492.0, 0.776185
498.0, 0.389612
504.0, 0.148055
510.0, 0.0625199
516.0, 0.0427529
522.0, 0.0244676
528.0, 0.034846
534.0, 0.0380677
540.0, 0.034744
546.0, 0.0213353
552.0, 0.0103859
558.0, 0.00350202
564.0, 0.0123345
570.0, 0.00206772
576.0, 0.00968782
582.0, 0.0445599
588.0, 0.0735064
594.0, 0.0339072
600.0, 0.0175333
606.0, 0.0246794
612.0, 0.0284852
618.0, 0.0347563
624.0, 0.0250899
630.0, 0.0112535
636.0, 0.00677203
642.0, 0.00756831
648.0, 0.00201898
654.0, 0.00333619
660.0, 0.00106578
666.0, 0.00349382
672.0, 0.0204191
678.0, 0.0397124
684.0, 0.0641664
690.0, 0.0905544
696.0, 0.111603
702.0, 0.126739
708.0, 0.121757
714.0, 0.0805948
720.0, 0.0317849
726.0, 0.00919046
732.0, 0.0209437
738.0, 0.0246684
744.0, 0.0408868
750.0, 0.101457
756.0, 0.173848
762.0, 0.222452
768.0, 0.156781
774.0, 0.0510739
780.0, 0.0118248
786.0, 0.00702145
792.0, 0.0109966
798.0, 0.0074724
804.0, 0.0176693
810.0, 0.0317531
816.0, 0.0260767
822.0, 0.0261984
828.0, 0.0170888
834.0, 0.0213937
840.0, 0.0531431
846.0, 0.108536
852.0, 0.205902
858.0, 0.291311
864.0, 0.311916
870.0, 0.23786
876.0, 0.150192
882.0, 0.0909627
888.0, 0.0552812
894.0, 0.0261962
900.0, 0.0139662
906.0, 0.00332631
912.0, 0.000767389
918.0, 0.00262347
924.0, 0.00102312
930.0, 0.000605681
936.0, 0.0139396
942.0, 0.00707115
948.0, 0.0165563
954.0, 0.0351654
960.0, 0.0527509
966.0, 0.0615869
972.0, 0.050435
978.0, 0.0372965
984.0, 0.0356987
990.0, 0.0169488
996.0, 0.00780576
1002.0, 0.00413624
1008.0, 0.00380242
1014.0, 0.00247661
1020.0, 0.00468557
1026.0, 0.00588499
1032.0, 0.00878024
1038.0, 0.00907771
1044.0, 0.00668611
1050.0, 0.00438625
1056.0, 0.0170197
1062.0, 0.0108075
1068.0, 0.00264202
1074.0, 0.00116594
1080.0, 0.00163581
1086.0, 0.00135731
1092.0, 0.0027086
1098.0, 0.00506346
1104.0, 0.00177557
1110.0, 0.00286751
1116.0, 0.00176634
1122.0, 0.00734611
1128.0, 0.00577443
1134.0, 0.00136119
1140.0, 0.00446887
1146.0, 0.00332725
1152.0, 0.00449575
1158.0, 0.00856636
1164.0, 0.0110253
1170.0, 0.0142347
1176.0, 0.0115212
1182.0, 0.00954607
1188.0, 0.00704491
1194.0, 0.00872597
1200.0, 0.00600703
1206.0, 0.0126585
1212.0, 0.00345476
1218.0, 0.00680167
1224.0, 0.00783528
1230.0, 0.00505768
1236.0, 0.0068164
1242.0, 0.00399526
1248.0, 0.00299076
1254.0, 0.00406348
1260.0, 0.00686045
1266.0, 0.0163488
1272.0, 0.00506371
1278.0, 0.00797194
1284.0, 0.00252981
1290, 0.0
1296, 0.0
1302, 0.0
1308, 0.0
1314, 0.0
1320, 0.0
1326, 0.0
1332, 0.0
1338, 0.0
1344, 0.0
1350, 0.0
1356, 0.0
1362, 0.0
1368, 0.0
1374, 0.0
1380, 0.0
1386, 0.0
1392, 0.0
1398, 0.0
1404, 0.0
1410, 0.0
1416, 0.0
1422, 0.0
1428, 0.0
1434, 0.0
1440, 0.0
1446, 0.0
1452, 0.0
1458, 0.0
1464, 0.0
1470, 0.0
1476, 0.0
1482, 0.0
1488, 0.0
1494, 0.0
1500, 0.0
1506, 0.0
1512, 0.0
1518, 0.0
1524, 0.0
1530, 0.0
1536, 0.0
1542, 0.0
1548, 0.0
1554, 0.0
1560, 0.0
1566, 0.0
1572, 0.0
1578, 0.0
1584, 0.0
1590, 0.0
1596, 0.0
1599, 0.0