File: raw data/Dataset_2/GlassYb/GlassYb__R110086__Raman__532__0__unoriented__Raman_Data_Processed__35513.txt
30, 0.0
36, 0.0
42, 0.0
48, 0.0
54, 0.0
60, 0.0
66, 0.0
72, 0.0
78, 0.0
84, 0.0
90, 0.0
96, 0.0
102, 0.0
108, 0.0
114, 0.0
120, 0.0
126, 0.0
132, 0.0
138, 0.0
144, 0.0
150, 0.0
156, 0.0
162, 0.0
168, 0.0
174, 0.0
180, 0.0
186, 0.0
192, 0.0
198.0, 0.988407
204.0, 0.994331
210.0, 0.98002
216.0, 0.976549
222.0, 0.970324
228.0, 0.971441
234.0, 0.959299
240.0, 0.949548
246.0, 0.933162
252.0, 0.931961
258.0, 0.929251
264.0, 0.922484
270.0, 0.924401
276.0, 0.917609
282.0, 0.925063
288.0, 0.906865
294.0, 0.910137
300.0, 0.913382
306.0, 0.911054
312.0, 0.916956
318.0, 0.920452
324.0, 0.917157
330.0, 0.919057
336.0, 0.931479
342.0, 0.92908
348.0, 0.922335
354.0, 0.929316
360.0, 0.932191
366.0, 0.935092
372.0, 0.927262
378.0, 0.924662
384.0, 0.931242
390.0, 0.925634
396.0, 0.925531
402.0, 0.914121
408.0, 0.930442
414.0, 0.929163
420.0, 0.927786
426.0, 0.932752
432.0, 0.937925
438.0, 0.93848
444.0, 0.939719
450.0, 0.942062
456.0, 0.943328
462.0, 0.959454
468.0, 0.954546
474.0, 0.948728
480.0, 0.947687
486.0, 0.94895
492.0, 0.946793
498.0, 0.953008
504.0, 0.935488
510.0, 0.934643
516.0, 0.920391
522.0, 0.905139
528.0, 0.902272
534.0, 0.86822
540.0, 0.855976
546.0, 0.833969
552.0, 0.815796
558.0, 0.805911
564.0, 0.79262
570.0, 0.782049
576.0, 0.757631
582.0, 0.755719
588.0, 0.719432
594.0, 0.706261
600.0, 0.685755
606.0, 0.663082
612.0, 0.64304
618.0, 0.6265
624.0, 0.607603
630.0, 0.59363
636.0, 0.591237
642.0, 0.579737
648.0, 0.573128
654.0, 0.571954
660.0, 0.557641
666.0, 0.534699
672.0, 0.525991
678.0, 0.509358
684.0, 0.495726
690.0, 0.477169
696.0, 0.467535
702.0, 0.442162
708.0, 0.429137
714.0, 0.414775
720.0, 0.396083
726.0, 0.380549
732.0, 0.370255
738.0, 0.360023
744.0, 0.344181
750.0, 0.344296
756.0, 0.328627
762.0, 0.315914
768.0, 0.303861
774.0, 0.28691
780.0, 0.2751
786.0, 0.272425
792.0, 0.25101
798.0, 0.23696
804.0, 0.230824
810.0, 0.215676
816.0, 0.205622
822.0, 0.192593
828.0, 0.1911
834.0, 0.187061
840.0, 0.189727
846.0, 0.204842
852.0, 0.216007
858.0, 0.238899
864.0, 0.266435
870.0, 0.279182
876.0, 0.305024
882.0, 0.324879
888.0, 0.349003
894.0, 0.376476
900.0, 0.398786
906.0, 0.420654
912.0, 0.443021
918.0, 0.467589
924.0, 0.495094
930.0, 0.508972
936.0, 0.523069
942.0, 0.540385
948.0, 0.553536
954.0, 0.568982
960.0, 0.570939
966.0, 0.584608
972.0, 0.592238
978.0, 0.596385
984.0, 0.600109
990.0, 0.610178
996.0, 0.606438
1002.0, 0.607543
1008.0, 0.619334
1014.0, 0.605837
1020.0, 0.603551
1026.0, 0.591703
1032.0, 0.571602
1038.0, 0.561292
1044.0, 0.526075
1050.0, 0.510487
1056.0, 0.483375
1062.0, 0.453723
1068.0, 0.420116
1074.0, 0.388843
1080.0, 0.352154
1086.0, 0.322409
1092.0, 0.292798
1098.0, 0.265346
1104.0, 0.238124
1110.0, 0.216289
1116.0, 0.193466
1122.0, 0.167921
1128.0, 0.153006
1134.0, 0.134078
1140.0, 0.121138
1146.0, 0.111041
1152.0, 0.101685
1158.0, 0.0886396
1164.0, 0.0812549
1170.0, 0.0704075
1176.0, 0.0653391
1182.0, 0.0528477
1188.0, 0.0456019
1194.0, 0.0471662
1200.0, 0.0364913
1206.0, 0.0282686
1212.0, 0.0259318
1218.0, 0.0263214
1224.0, 0.0230504
1230.0, 0.0203507
1236.0, 0.0165816
1242.0, 0.0144156
1248.0, 0.00750684
1254.0, 0.0137701
1260.0, 0.00654092
1266.0, 0.00747135
1272.0, 0.00592279
1278.0, 0.00480472
1284.0, 0.00452259
1290.0, 0.00960295
1296.0, 0.00714443
1302.0, 0.00980641
1308, 0.0
1314, 0.0
1320, 0.0
1326, 0.0
1332, 0.0
1338, 0.0
1344, 0.0
1350, 0.0
1356, 0.0
1362, 0.0
1368, 0.0
1374, 0.0
1380, 0.0
1386, 0.0
1392, 0.0
1398, 0.0
1404, 0.0
1410, 0.0
1416, 0.0
1422, 0.0
1428, 0.0
1434, 0.0
1440, 0.0
1446, 0.0
1452, 0.0
1458, 0.0
1464, 0.0
1470, 0.0
1476, 0.0
1482, 0.0
1488, 0.0
1494, 0.0
1500, 0.0
1506, 0.0
1512, 0.0
1518, 0.0
1524, 0.0
1530, 0.0
1536, 0.0
1542, 0.0
1548, 0.0
1554, 0.0
1560, 0.0
1566, 0.0
1572, 0.0
1578, 0.0
1584, 0.0
1590, 0.0
1596, 0.0
1599, 0.0