File: raw data/Dataset_2/GlassNd/GlassNd__R110077__Raman__780__0__unoriented__Raman_Data_Processed__35490.txt
30, 0.0
36, 0.0
42, 0.0
48, 0.0
54, 0.0
60, 0.0
66, 0.0
72, 0.0
78, 0.0
84, 0.0
90, 0.0
96.0, 0.000875243
102.0, 0.000135077
108.0, 0.00084535
114.0, 0.00222492
120.0, 0.00339308
126.0, 0.00492358
132.0, 0.00655845
138.0, 0.00803224
144.0, 0.00978171
150.0, 0.0116603
156.0, 0.0134223
162.0, 0.015498
168.0, 0.0174042
174.0, 0.0193281
180.0, 0.0215623
186.0, 0.0238498
192.0, 0.0258085
198.0, 0.0276771
204.0, 0.0298735
210.0, 0.0318538
216.0, 0.0342461
222.0, 0.0361209
228.0, 0.038184
234.0, 0.0403641
240.0, 0.0424583
246.0, 0.0445192
252.0, 0.0464114
258.0, 0.0484201
264.0, 0.0504017
270.0, 0.052585
276.0, 0.054424
282.0, 0.0565345
288.0, 0.0584532
294.0, 0.0603394
300.0, 0.0624187
306.0, 0.0644149
312.0, 0.0669309
318.0, 0.0692104
324.0, 0.0720471
330.0, 0.0755493
336.0, 0.0791091
342.0, 0.0831801
348.0, 0.0879833
354.0, 0.0934552
360.0, 0.0993184
366.0, 0.105915
372.0, 0.112763
378.0, 0.119663
384.0, 0.126623
390.0, 0.133204
396.0, 0.139625
402.0, 0.145729
408.0, 0.150794
414.0, 0.155667
420.0, 0.159441
426.0, 0.161889
432.0, 0.164144
438.0, 0.16512
444.0, 0.165329
450.0, 0.165197
456.0, 0.163999
462.0, 0.16289
468.0, 0.161014
474.0, 0.15962
480.0, 0.157199
486.0, 0.155303
492.0, 0.153677
498.0, 0.152365
504.0, 0.150689
510.0, 0.149421
516.0, 0.147957
522.0, 0.146703
528.0, 0.145052
534.0, 0.14374
540.0, 0.142517
546.0, 0.140935
552.0, 0.140094
558.0, 0.138577
564.0, 0.137496
570.0, 0.136052
576.0, 0.134736
582.0, 0.133234
588.0, 0.131458
594.0, 0.130404
600.0, 0.128691
606.0, 0.127443
612.0, 0.125932
618.0, 0.124139
624.0, 0.122821
630.0, 0.12136
636.0, 0.119724
642.0, 0.117978
648.0, 0.116479
654.0, 0.114826
660.0, 0.11308
666.0, 0.111007
672.0, 0.10921
678.0, 0.107436
684.0, 0.105222
690.0, 0.103507
696.0, 0.10169
702.0, 0.100106
708.0, 0.0982153
714.0, 0.0966196
720.0, 0.0943315
726.0, 0.092756
732.0, 0.0908041
738.0, 0.0889591
744.0, 0.0865748
750.0, 0.0850297
756.0, 0.0829961
762.0, 0.0808098
768.0, 0.0787162
774.0, 0.0764928
780.0, 0.0748162
786.0, 0.0725006
792.0, 0.0705824
798.0, 0.0684087
804.0, 0.0656745
810.0, 0.0639375
816.0, 0.0617037
822.0, 0.059631
828.0, 0.0578129
834.0, 0.0553403
840.0, 0.0535342
846.0, 0.0518461
852.0, 0.0498656
858.0, 0.0483735
864.0, 0.0468745
870.0, 0.0454153
876.0, 0.0443732
882.0, 0.0431986
888.0, 0.0422321
894.0, 0.0417534
900.0, 0.0411056
906.0, 0.0410292
912.0, 0.0408159
918.0, 0.0410973
924.0, 0.0409503
930.0, 0.0413248
936.0, 0.041547
942.0, 0.0422363
948.0, 0.0430323
954.0, 0.0438951
960.0, 0.0451685
966.0, 0.0463585
972.0, 0.0477
978.0, 0.0490505
984.0, 0.0511193
990.0, 0.0534356
996.0, 0.0557876
1002.0, 0.0590124
1008.0, 0.062741
1014.0, 0.0668533
1020.0, 0.0714788
1026.0, 0.0767892
1032.0, 0.0825473
1038.0, 0.0895045
1044.0, 0.0960187
1050.0, 0.103834
1056.0, 0.113223
1062.0, 0.122559
1068.0, 0.133569
1074.0, 0.146235
1080.0, 0.159307
1086.0, 0.173921
1092.0, 0.190545
1098.0, 0.207291
1104.0, 0.225112
1110.0, 0.24405
1116.0, 0.263905
1122.0, 0.284741
1128.0, 0.30816
1134.0, 0.332643
1140.0, 0.357181
1146.0, 0.383885
1152.0, 0.411359
1158.0, 0.439959
1164.0, 0.470738
1170.0, 0.500745
1176.0, 0.53116
1182.0, 0.560134
1188.0, 0.590631
1194.0, 0.620319
1200.0, 0.648855
1206.0, 0.677078
1212.0, 0.705045
1218.0, 0.732444
1224.0, 0.757365
1230.0, 0.78281
1236.0, 0.807899
1242.0, 0.826365
1248.0, 0.849341
1254.0, 0.868037
1260.0, 0.893175
1266.0, 0.915502
1272.0, 0.938299
1278.0, 0.965182
1284.0, 0.994315
1290, 0.0
1296, 0.0
1302, 0.0
1308, 0.0
1314, 0.0
1320, 0.0
1326, 0.0
1332, 0.0
1338, 0.0
1344, 0.0
1350, 0.0
1356, 0.0
1362, 0.0
1368, 0.0
1374, 0.0
1380, 0.0
1386, 0.0
1392, 0.0
1398, 0.0
1404, 0.0
1410, 0.0
1416, 0.0
1422, 0.0
1428, 0.0
1434, 0.0
1440, 0.0
1446, 0.0
1452, 0.0
1458, 0.0
1464, 0.0
1470, 0.0
1476, 0.0
1482, 0.0
1488, 0.0
1494, 0.0
1500, 0.0
1506, 0.0
1512, 0.0
1518, 0.0
1524, 0.0
1530, 0.0
1536, 0.0
1542, 0.0
1548, 0.0
1554, 0.0
1560, 0.0
1566, 0.0
1572, 0.0
1578, 0.0
1584, 0.0
1590, 0.0
1596, 0.0
1599, 0.0