File: raw data/Dataset_2/Silicon/Silicon__R050145-3__Raman__514__45__ccw__Raman_Data_Processed__5982.txt
30, 0.0
36, 0.0
42, 0.0
48, 0.0
54, 0.0
60, 0.0
66, 0.0
72, 0.0
78, 0.0
84, 0.0
90, 0.0
96, 0.0
102, 0.0
108, 0.0
114, 0.0
120.0, 0.00854369
126.0, 0.00263333
132.0, 0.00799374
138.0, 0.025193
144.0, 0.0307011
150.0, 0.0182443
156.0, 0.00965003
162.0, 0.00312663
168.0, 0.00295787
174.0, 0.00423057
180.0, 0.00399959
186.0, 0.0061383
192.0, 0.00361115
198.0, 0.0043571
204.0, 0.00232756
210.0, 0.00059949
216.0, 0.000977541
222.0, 0.001664
228.0, 0.0024022
234.0, 0.00241424
240.0, 0.000668848
246.0, 0.00167996
252.0, 0.00167883
258.0, 0.000719788
264.0, 0.0027068
270.0, 0.00118983
276.0, 0.00310138
282.0, 0.00471711
288.0, 0.0111847
294.0, 0.0168486
300.0, 0.021055
306.0, 0.0229213
312.0, 0.0222224
318.0, 0.0216514
324.0, 0.0222193
330.0, 0.0208248
336.0, 0.0204208
342.0, 0.020973
348.0, 0.019463
354.0, 0.0208973
360.0, 0.0197168
366.0, 0.0184065
372.0, 0.0184367
378.0, 0.0169626
384.0, 0.0163616
390.0, 0.013749
396.0, 0.0145908
402.0, 0.0135321
408.0, 0.0135759
414.0, 0.0123971
420.0, 0.0149603
426.0, 0.0161127
432.0, 0.0168854
438.0, 0.0165893
444.0, 0.0174044
450.0, 0.0181333
456.0, 0.0189461
462.0, 0.017837
468.0, 0.0209575
474.0, 0.0214895
480.0, 0.022391
486.0, 0.023624
492.0, 0.0257117
498.0, 0.0285613
504.0, 0.0362113
510.0, 0.0670176
516.0, 0.267432
522.0, 0.995355
528.0, 0.341108
534.0, 0.0785353
540.0, 0.0340551
546.0, 0.0189145
552.0, 0.0144735
558.0, 0.00977638
564.0, 0.0100044
570.0, 0.00729022
576.0, 0.00638426
582.0, 0.00372238
588.0, 0.00277835
594.0, 0.00113953
600.0, 0.00227952
606.0, 0.00190596
612.0, 0.00226976
618.0, 0.00420462
624.0, 0.00512702
630.0, 0.00289566
636.0, 0.00202651
642.0, 0.00187491
648.0, 0.00239053
654.0, 0.00174868
660.0, 0.00109136
666.0, 0.00214968
672.0, 0.00260114
678.0, 0.000495337
684.0, 0.00197655
690.0, 0.000740759
696.0, 0.000268009
702.0, 0.0008638
708.0, 0.00026927
714.0, 0.00174242
720.0, 0.000594779
726.0, 0.000289048
732.0, 0.0020547
738.0, 0.00076184
744.0, 0.000753434
750.0, 0.000995184
756.0, 0.000288286
762.0, 0.000589088
768.0, 0.000257987
774.0, 0.000772428
780.0, 0.00107187
786.0, 0.000691371
792.0, 0.0019635
798.0, 0.00176663
804.0, 0.000672129
810.0, 0.00256459
816.0, 0.00144528
822.0, 0.00246394
828.0, 0.00371317
834.0, 0.0021514
840.0, 0.00272598
846.0, 0.0016298
852.0, 0.00338887
858.0, 0.00147229
864.0, 0.00214478
870.0, 0.00171733
876.0, 0.00234536
882.0, 0.00272551
888.0, 0.00100961
894.0, 0.00295027
900.0, 0.00321344
906.0, 0.00296024
912.0, 0.00405229
918.0, 0.00424978
924.0, 0.00431852
930.0, 0.00779076
936.0, 0.0171792
942.0, 0.0255676
948.0, 0.0301301
954.0, 0.0327396
960.0, 0.0327922
966.0, 0.032964
972.0, 0.0346276
978.0, 0.0342583
984.0, 0.0339021
990.0, 0.0303426
996.0, 0.0216993
1002.0, 0.0155239
1008.0, 0.0113225
1014.0, 0.00968664
1020.0, 0.00927636
1026.0, 0.00743636
1032.0, 0.00744661
1038.0, 0.00555628
1044.0, 0.00551312
1050.0, 0.00409536
1056.0, 0.00389769
1062.0, 0.0034346
1068.0, 0.00270405
1074.0, 0.0027298
1080.0, 0.00353763
1086.0, 0.00289863
1092.0, 0.00304635
1098.0, 0.00335103
1104.0, 0.000595513
1110.0, 0.00226584
1116.0, 0.00225183
1122.0, 0.00834159
1128.0, 0.0014487
1134.0, 0.000351841
1140.0, 0.00116139
1146.0, 0.000419135
1152.0, 0.00102045
1158.0, 0.000478322
1164.0, 0.000234495
1170.0, 0.000660469
1176.0, 0.000642028
1182.0, 0.00044462
1188.0, 0.00106634
1194.0, 0.000634889
1200.0, 0.000619335
1206.0, 0.00149877
1212.0, 0.00158091
1218.0, 0.00450323
1224.0, 0.0100606
1230.0, 0.00794491
1236.0, 0.00116936
1242.0, 0.0019508
1248.0, 0.000832323
1254.0, 0.00110687
1260.0, 0.000109963
1266.0, 0.00119077
1272.0, 0.000746685
1278.0, 0.000981057
1284.0, 0.000902356
1290.0, 0.00187471
1296.0, 0.00123615
1302.0, 0.00113101
1308.0, 0.000106673
1314.0, 0.00116807
1320.0, 0.000106221
1326.0, 0.000846653
1332.0, 0.00095988
1338.0, 0.00126947
1344.0, 0.00212502
1350.0, 0.00203925
1356.0, 0.000840841
1362.0, 0.00158911
1368.0, 0.00190304
1374.0, 0.00128816
1380.0, 0.001396
1386.0, 0.00257377
1392.0, 0.00394771
1398.0, 0.00132347
1404.0, 0.00231951
1410.0, 0.00168266
1416.0, 0.00183941
1422.0, 0.00202657
1428.0, 0.00195218
1434.0, 0.00169638
1440.0, 0.000944961
1446.0, 0.00233006
1452.0, 0.00177235
1458.0, 0.00257363
1464.0, 0.0023614
1470.0, 0.00309594
1476.0, 0.000650446
1482.0, 0.0023514
1488.0, 0.00159801
1494.0, 0.000662425
1500.0, 0.00128154
1506.0, 0.000800835
1512.0, 0.00129108
1518.0, 9.90328e-05
1524, 0.0
1530, 0.0
1536, 0.0
1542, 0.0
1548, 0.0
1554, 0.0
1560, 0.0
1566, 0.0
1572, 0.0
1578, 0.0
1584, 0.0
1590, 0.0
1596, 0.0
1599, 0.0