File: raw data/Dataset_2/Silicon/Silicon__R050145-3__Raman__514__0__ccw__Raman_Data_Processed__5980.txt
30, 0.0
36, 0.0
42, 0.0
48, 0.0
54, 0.0
60, 0.0
66, 0.0
72, 0.0
78, 0.0
84, 0.0
90, 0.0
96, 0.0
102, 0.0
108, 0.0
114, 0.0
120.0, 0.0303243
126.0, 0.0145444
132.0, 0.032626
138.0, 0.0534068
144.0, 0.0728261
150.0, 0.0454509
156.0, 0.0377526
162.0, 0.0202015
168.0, 0.0122651
174.0, 0.0193416
180.0, 0.0182435
186.0, 0.0219386
192.0, 0.0163555
198.0, 0.019565
204.0, 0.0136013
210.0, 0.0103741
216.0, 0.00346584
222.0, 0.00187296
228.0, 0.00140642
234.0, 0.00490278
240.0, 0.00217575
246.0, 0.00231403
252.0, 0.00501012
258.0, 9.77525e-05
264.0, 0.00338878
270.0, 0.00257612
276.0, 0.00908711
282.0, 0.016639
288.0, 0.0334435
294.0, 0.0520106
300.0, 0.0708681
306.0, 0.0708938
312.0, 0.0668376
318.0, 0.0602006
324.0, 0.0557678
330.0, 0.0553307
336.0, 0.0528682
342.0, 0.0476527
348.0, 0.0402988
354.0, 0.0465158
360.0, 0.0453729
366.0, 0.0435463
372.0, 0.0464042
378.0, 0.0409752
384.0, 0.0372513
390.0, 0.03126
396.0, 0.0365284
402.0, 0.0279567
408.0, 0.0366333
414.0, 0.0316849
420.0, 0.0380933
426.0, 0.0372976
432.0, 0.0473824
438.0, 0.0715979
444.0, 0.0380376
450.0, 0.0389812
456.0, 0.0359491
462.0, 0.0371431
468.0, 0.0369775
474.0, 0.0417834
480.0, 0.0426134
486.0, 0.0426109
492.0, 0.0516986
498.0, 0.052643
504.0, 0.0610514
510.0, 0.0954514
516.0, 0.392436
522.0, 0.942055
528.0, 0.289332
534.0, 0.0823517
540.0, 0.0411047
546.0, 0.0303295
552.0, 0.023465
558.0, 0.0185144
564.0, 0.0186653
570.0, 0.0170119
576.0, 0.013965
582.0, 0.0105693
588.0, 0.00628856
594.0, 0.00578102
600.0, 0.00458701
606.0, 0.00544491
612.0, 0.0104772
618.0, 0.0141978
624.0, 0.0140089
630.0, 0.00985536
636.0, 0.00665342
642.0, 0.0084923
648.0, 0.010645
654.0, 0.008227
660.0, 0.00859725
666.0, 0.01093
672.0, 0.00728606
678.0, 0.00753997
684.0, 0.00383239
690.0, 0.00306426
696.0, 0.00172902
702.0, 0.00392676
708.0, 0.00137436
714.0, 0.00328028
720.0, 0.00406846
726.0, 0.00365326
732.0, 0.00499051
738.0, 0.00178961
744.0, 0.00143855
750.0, 0.000982593
756.0, 0.00162106
762.0, 0.00277418
768.0, 0.0032432
774.0, 0.00224507
780.0, 0.00481784
786.0, 0.00395321
792.0, 0.00152905
798.0, 0.00637409
804.0, 0.00787752
810.0, 0.00931457
816.0, 0.00725148
822.0, 0.00699087
828.0, 0.0131464
834.0, 0.00877974
840.0, 0.00371659
846.0, 0.00286577
852.0, 0.00365516
858.0, 0.0026823
864.0, 0.00385735
870.0, 0.00516142
876.0, 0.00636479
882.0, 0.00649759
888.0, 0.00337845
894.0, 0.0049579
900.0, 0.00840323
906.0, 0.00885395
912.0, 0.00840191
918.0, 0.0132627
924.0, 0.0166513
930.0, 0.0314666
936.0, 0.0661394
942.0, 0.0986301
948.0, 0.11037
954.0, 0.114405
960.0, 0.118376
966.0, 0.117129
972.0, 0.11939
978.0, 0.124663
984.0, 0.124132
990.0, 0.105888
996.0, 0.0706744
1002.0, 0.0497864
1008.0, 0.0449954
1014.0, 0.0357745
1020.0, 0.0290307
1026.0, 0.0255988
1032.0, 0.0214412
1038.0, 0.0228332
1044.0, 0.0108047
1050.0, 0.0145304
1056.0, 0.0095301
1062.0, 0.0109303
1068.0, 0.00729893
1074.0, 0.0113847
1080.0, 0.00964339
1086.0, 0.00689129
1092.0, 0.00989995
1098.0, 0.00810702
1104.0, 0.00404701
1110.0, 0.00770737
1116.0, 0.00867535
1122.0, 0.0108571
1128.0, 0.0098222
1134.0, 0.0061897
1140.0, 0.00270059
1146.0, 0.00245077
1152.0, 0.00300135
1158.0, 0.000974037
1164.0, 0.00400443
1170.0, 0.0011083
1176.0, 0.00200627
1182.0, 0.00438596
1188.0, 0.00521823
1194.0, 0.0039009
1200.0, 0.00434012
1206.0, 0.00345922
1212.0, 0.0089839
1218.0, 0.00429539
1224.0, 0.00496445
1230.0, 0.0142615
1236.0, 0.00687257
1242.0, 0.00782623
1248.0, 0.0041686
1254.0, 0.00726015
1260.0, 0.00989794
1266.0, 0.00458709
1272.0, 0.00518685
1278.0, 0.00389499
1284.0, 0.00530697
1290.0, 0.00791256
1296.0, 0.0105918
1302.0, 0.00633556
1308.0, 0.00152857
1314.0, 0.0034434
1320.0, 0.00270075
1326.0, 0.00237858
1332.0, 0.00144493
1338.0, 0.00727718
1344.0, 0.00812807
1350.0, 0.00783322
1356.0, 0.00213767
1362.0, 0.00726184
1368.0, 0.00828255
1374.0, 0.00720959
1380.0, 0.00846123
1386.0, 0.00874915
1392.0, 0.00895602
1398.0, 0.00569587
1404.0, 0.00717034
1410.0, 0.00998068
1416.0, 0.00746997
1422.0, 0.00889887
1428.0, 0.00619652
1434.0, 0.00439546
1440.0, 0.00638486
1446.0, 0.00397804
1452.0, 0.00447327
1458.0, 0.00891571
1464.0, 0.00486021
1470.0, 0.00498306
1476.0, 0.00719042
1482.0, 0.00352208
1488.0, 0.00315361
1494.0, 0.00326519
1500.0, 0.00589297
1506.0, 0.0100033
1512.0, 0.00757235
1518.0, 0.000746574
1524, 0.0
1530, 0.0
1536, 0.0
1542, 0.0
1548, 0.0
1554, 0.0
1560, 0.0
1566, 0.0
1572, 0.0
1578, 0.0
1584, 0.0
1590, 0.0
1596, 0.0
1599, 0.0