File: raw data/Dataset_2/Silicon/Silicon__R040145__Raman__514__0__unoriented__Raman_Data_Processed__10159.txt
30, 0.0
36, 0.0
42, 0.0
48, 0.0
54, 0.0
60, 0.0
66, 0.0
72, 0.0
78, 0.0
84, 0.0
90, 0.0
96, 0.0
102, 0.0
108, 0.0
114, 0.0
120, 0.0
126, 0.0
132.0, 0.000943591
138.0, 0.00563259
144.0, 0.0026071
150.0, 0.00428006
156.0, 0.00351006
162.0, 0.00328628
168.0, 0.00200186
174.0, 0.00383927
180.0, 0.00503033
186.0, 0.00506204
192.0, 0.00716519
198.0, 0.0100711
204.0, 0.0103439
210.0, 0.00562393
216.0, 0.000731018
222.0, 1.83487e-05
228.0, 0.00153949
234.0, 0.000178392
240.0, 0.000587175
246.0, 0.000631942
252.0, 0.0017633
258.0, 0.000577083
264.0, 0.000647709
270.0, 0.00148938
276.0, 0.00114685
282.0, 0.000556472
288.0, 0.00219109
294.0, 0.0029338
300.0, 0.00844106
306.0, 0.0063378
312.0, 0.0040175
318.0, 0.00503417
324.0, 0.00460057
330.0, 0.0042922
336.0, 0.0047532
342.0, 0.00534454
348.0, 0.00462417
354.0, 0.00509246
360.0, 0.00496009
366.0, 0.00658822
372.0, 0.00639394
378.0, 0.00481176
384.0, 0.00409294
390.0, 0.00610319
396.0, 0.003608
402.0, 0.00367939
408.0, 0.0032884
414.0, 0.00327222
420.0, 0.00318694
426.0, 0.00447706
432.0, 0.00412422
438.0, 0.00496647
444.0, 0.00401342
450.0, 0.00283944
456.0, 0.0028865
462.0, 0.00461248
468.0, 0.00424227
474.0, 0.00663221
480.0, 0.00609778
486.0, 0.00906666
492.0, 0.010139
498.0, 0.0144236
504.0, 0.0223557
510.0, 0.0565297
516.0, 0.432021
522.0, 0.537027
528.0, 0.0700294
534.0, 0.0294284
540.0, 0.0161818
546.0, 0.0144318
552.0, 0.0122954
558.0, 0.0107946
564.0, 0.00889964
570.0, 0.00708229
576.0, 0.00803369
582.0, 0.00794374
588.0, 0.00437021
594.0, 0.00189752
600.0, 0.00179205
606.0, 0.00233674
612.0, 0.00358826
618.0, 0.00402583
624.0, 0.00263885
630.0, 0.0021709
636.0, 0.00332412
642.0, 0.00189194
648.0, 0.00268005
654.0, 0.00270807
660.0, 0.00223949
666.0, 0.00189
672.0, 0.00204585
678.0, 0.00155298
684.0, 0.00144866
690.0, 0.000792766
696.0, 0.000211321
702.0, 0.000628388
708.0, 0.000584862
714.0, 0.000523013
720.0, 0.00111015
726.0, 0.000914923
732.0, 0.000973716
738.0, 0.000545047
744.0, 0.000966122
750.0, 0.00137928
756.0, 0.00169069
762.0, 0.000911185
768.0, 0.00113237
774.0, 0.000317588
780.0, 0.00141485
786.0, 0.00109189
792.0, 0.00125628
798.0, 0.00231078
804.0, 0.00193134
810.0, 0.00235875
816.0, 0.00228221
822.0, 0.00308146
828.0, 0.00154669
834.0, 0.00292774
840.0, 0.00251394
846.0, 0.00230302
852.0, 0.00203046
858.0, 0.00108199
864.0, 0.00333818
870.0, 0.00202867
876.0, 0.00190364
882.0, 0.00269221
888.0, 0.0025723
894.0, 0.00233081
900.0, 0.0025064
906.0, 0.00307596
912.0, 0.00270526
918.0, 0.00312749
924.0, 0.00532162
930.0, 0.0111764
936.0, 0.0183082
942.0, 0.025578
948.0, 0.0240569
954.0, 0.0235478
960.0, 0.0253834
966.0, 0.0236125
972.0, 0.0266488
978.0, 0.0271893
984.0, 0.0265701
990.0, 0.0211227
996.0, 0.014565
1002.0, 0.0104029
1008.0, 0.00965104
1014.0, 0.00767272
1020.0, 0.0048024
1026.0, 0.00411144
1032.0, 0.00454748
1038.0, 0.00420212
1044.0, 0.00307284
1050.0, 0.00205347
1056.0, 0.00167107
1062.0, 0.00134817
1068.0, 0.0028627
1074.0, 0.00262215
1080.0, 0.00249685
1086.0, 0.0016409
1092.0, 0.0010482
1098.0, 0.000157318
1104.0, 0.00217984
1110.0, 0.0011449
1116.0, 0.000845499
1122.0, 0.00478224
1128.0, 0.00144351
1134.0, 0.000163918
1140.0, 0.00104007
1146.0, 0.0005892
1152.0, 0.00193729
1158.0, 0.000786045
1164.0, 0.000422971
1170.0, 0.000281682
1176.0, 0.00162357
1182.0, 0.00195169
1188.0, 0.000449577
1194.0, 0.00107123
1200.0, 0.00152529
1206.0, 0.00146653
1212.0, 0.00202623
1218.0, 0.00101437
1224.0, 0.00238141
1230.0, 0.00060278
1236.0, 0.00232844
1242.0, 0.000297717
1248.0, 0.00177156
1254.0, 9.60373e-06
1260.0, 0.00265624
1266.0, 0.00024572
1272.0, 0.000902129
1278.0, 0.000284882
1284.0, 0.000458533
1290.0, 0.00154137
1296.0, 0.00106103
1302.0, 0.00200754
1308.0, 0.00177413
1314.0, 0.00163454
1320.0, 0.000684922
1326.0, 0.00137559
1332.0, 0.00342638
1338.0, 0.0023947
1344.0, 0.00417261
1350.0, 0.00320909
1356.0, 0.00301737
1362.0, 0.0033355
1368.0, 0.0040685
1374.0, 0.00296908
1380.0, 0.00330222
1386.0, 0.00345758
1392.0, 0.00205087
1398.0, 0.00314874
1404.0, 0.00287927
1410.0, 0.00339252
1416.0, 0.0034296
1422.0, 0.00288318
1428.0, 0.00296426
1434.0, 0.002384
1440.0, 0.00406041
1446.0, 0.00333549
1452.0, 0.00333046
1458.0, 0.00319347
1464.0, 0.00381214
1470.0, 0.00283881
1476.0, 0.00229745
1482.0, 0.00268457
1488.0, 0.00177151
1494.0, 0.000269372
1500.0, 0.000869983
1506.0, 0.000601723
1512.0, 0.00202844
1518.0, 0.00134709
1524, 0.0
1530, 0.0
1536, 0.0
1542, 0.0
1548, 0.0
1554, 0.0
1560, 0.0
1566, 0.0
1572, 0.0
1578, 0.0
1584, 0.0
1590, 0.0
1596, 0.0
1599, 0.0