File: raw data/Dataset_2/Silicon/Silicon__R040145__Raman__532__0__unoriented__Raman_Data_Processed__27508.txt
30, 0.0
36, 0.0
42, 0.0
48, 0.0
54, 0.0
60, 0.0
66, 0.0
72, 0.0
78, 0.0
84, 0.0
90, 0.0
96, 0.0
102, 0.0
108, 0.0
114, 0.0
120, 0.0
126, 0.0
132, 0.0
138, 0.0
144, 0.0
150, 0.0
156, 0.0
162.0, 9.55804e-05
168.0, 0.000318888
174.0, 0.000947991
180.0, 0.0006058
186.0, 0.00133154
192.0, 0.000318265
198.0, 0.000585717
204.0, 0.000326259
210.0, 6.94963e-05
216.0, 0.000548548
222.0, 0.00123042
228.0, 0.00252529
234.0, 0.00264313
240.0, 0.00211049
246.0, 0.00251884
252.0, 0.00281022
258.0, 0.00267742
264.0, 0.00292355
270.0, 0.00283711
276.0, 0.00335102
282.0, 0.00455295
288.0, 0.00574482
294.0, 0.00754362
300.0, 0.00910805
306.0, 0.00814541
312.0, 0.00411268
318.0, 0.00380745
324.0, 0.00247927
330.0, 0.00207627
336.0, 0.0012249
342.0, 0.000643937
348.0, 0.000715039
354.0, 0.000318469
360.0, 0.000138291
366.0, 0.000149282
372.0, 0.000162428
378.0, 4.14205e-05
384.0, 0.000570752
390.0, 0.000229419
396.0, 7.83095e-05
402.0, 0.00111024
408.0, 0.00179667
414.0, 0.00153714
420.0, 0.0020664
426.0, 0.0023957
432.0, 0.00293178
438.0, 0.00244306
444.0, 0.000727464
450.0, 2.15967e-05
456.0, 0.000759185
462.0, 0.000110965
468.0, 0.000362944
474.0, 0.00159533
480.0, 0.00316031
486.0, 0.00567995
492.0, 0.00967204
498.0, 0.0226398
504.0, 0.103569
510.0, 0.259131
516.0, 0.614259
522.0, 0.890709
528.0, 0.136613
534.0, 0.0482847
540.0, 0.0259388
546.0, 0.0160926
552.0, 0.00992519
558.0, 0.00578022
564.0, 0.00346207
570.0, 0.00211701
576.0, 0.000287452
582.0, 6.81543e-05
588.0, 0.000371553
594.0, 0.000452267
600.0, 8.06534e-05
606.0, 0.000720636
612.0, 0.00158043
618.0, 0.00275678
624.0, 0.00158688
630.0, 0.000879643
636.0, 0.00078125
642.0, 0.000672984
648.0, 0.000886695
654.0, 0.000792168
660.0, 0.00150194
666.0, 0.00162151
672.0, 0.00153267
678.0, 0.00121771
684.0, 0.000814591
690.0, 0.000695566
696.0, 0.000312621
702.0, 0.000222218
708.0, 0.000127302
714.0, 8.46974e-05
720.0, 0.000257454
726.0, 0.000235447
732.0, 0.000426735
738.0, 0.000350589
744.0, 0.000147139
750.0, 1.32206e-05
756.0, 0.0002591
762.0, 0.000386607
768.0, 0.0003689
774.0, 0.00048326
780.0, 0.000553238
786.0, 0.000444435
792.0, 0.000546546
798.0, 0.000725602
804.0, 0.0011307
810.0, 0.00139645
816.0, 0.00131988
822.0, 0.00120982
828.0, 0.00108586
834.0, 0.000767815
840.0, 0.000461913
846.0, 0.000515874
852.0, 0.000850442
858.0, 0.00035409
864.0, 0.000299715
870.0, 7.66068e-05
876.0, 0.000381285
882.0, 0.000202536
888.0, 0.000100598
894.0, 0.0002962
900.0, 0.000133272
906.0, 2.63366e-05
912.0, 0.000288757
918.0, 0.000744118
924.0, 0.00353662
930.0, 0.0101111
936.0, 0.0193969
942.0, 0.0271668
948.0, 0.0260632
954.0, 0.0254626
960.0, 0.0265693
966.0, 0.0268031
972.0, 0.0277287
978.0, 0.0275052
984.0, 0.0247995
990.0, 0.0172401
996.0, 0.0102709
1002.0, 0.00681085
1008.0, 0.00450219
1014.0, 0.00399956
1020.0, 0.00267881
1026.0, 0.00208496
1032.0, 0.00154498
1038.0, 0.000495431
1044.0, 0.000203159
1050.0, 0.000207852
1056.0, 0.000320739
1062.0, 0.000172384
1068.0, 0.000223111
1074.0, 0.000293109
1080.0, 0.000148752
1086.0, 0.000669458
1092.0, 0.000685361
1098.0, 0.000352135
1104.0, 0.000691936
1110.0, 0.000483911
1116.0, 0.000396781
1122.0, 0.00049627
1128.0, 0.000468505
1134.0, 0.000388604
1140.0, 0.000234635
1146.0, 0.000377264
1152.0, 0.00011158
1158.0, 0.000187689
1164.0, 0.000370875
1170.0, 0.000611248
1176.0, 0.000197137
1182.0, 0.000207395
1188.0, 0.000458744
1194.0, 0.000212125
1200.0, 1.05568e-05
1206.0, 3.90866e-06
1212.0, 0.000195193
1218.0, 1.80137e-05
1224.0, 0.000482946
1230.0, 0.000233597
1236.0, 0.000204509
1242.0, 5.99203e-05
1248.0, 5.90111e-05
1254.0, 0.000434131
1260.0, 0.000464267
1266.0, 5.14662e-05
1272.0, 0.000345148
1278.0, 0.000269065
1284.0, 0.000385415
1290.0, 0.000213498
1296.0, 0.000201888
1302, 0.0
1308, 0.0
1314, 0.0
1320, 0.0
1326, 0.0
1332, 0.0
1338, 0.0
1344, 0.0
1350, 0.0
1356, 0.0
1362, 0.0
1368, 0.0
1374, 0.0
1380, 0.0
1386, 0.0
1392, 0.0
1398, 0.0
1404, 0.0
1410, 0.0
1416, 0.0
1422, 0.0
1428, 0.0
1434, 0.0
1440, 0.0
1446, 0.0
1452, 0.0
1458, 0.0
1464, 0.0
1470, 0.0
1476, 0.0
1482, 0.0
1488, 0.0
1494, 0.0
1500, 0.0
1506, 0.0
1512, 0.0
1518, 0.0
1524, 0.0
1530, 0.0
1536, 0.0
1542, 0.0
1548, 0.0
1554, 0.0
1560, 0.0
1566, 0.0
1572, 0.0
1578, 0.0
1584, 0.0
1590, 0.0
1596, 0.0
1599, 0.0