File: raw data/Dataset_2/Silicon/Silicon__R040145__Raman__780__0__unoriented__Raman_Data_Processed__27510.txt
30, 0.0
36, 0.0
42, 0.0
48, 0.0
54, 0.0
60, 0.0
66, 0.0
72, 0.0
78, 0.0
84, 0.0
90, 0.0
96, 0.0
102, 0.0
108, 0.0
114, 0.0
120, 0.0
126, 0.0
132, 0.0
138, 0.0
144, 0.0
150, 0.0
156, 0.0
162.0, 4.57877e-06
168.0, 0.00190352
174.0, 0.000640837
180.0, 0.0034296
186.0, 0.00221886
192.0, 0.000823118
198.0, 0.00204146
204.0, 3.40925e-05
210.0, 0.000879825
216.0, 0.00324846
222.0, 0.00532663
228.0, 0.00543737
234.0, 0.00607806
240.0, 0.00542042
246.0, 0.00686291
252.0, 0.00546496
258.0, 0.00522257
264.0, 0.00927997
270.0, 0.0133113
276.0, 0.0182466
282.0, 0.0352749
288.0, 0.0497478
294.0, 0.0600861
300.0, 0.0598154
306.0, 0.0373225
312.0, 0.0216148
318.0, 0.0150343
324.0, 0.0101105
330.0, 0.00569389
336.0, 0.00303469
342.0, 0.00056699
348.0, 0.00148321
354.0, 0.000800548
360.0, 0.000287496
366.0, 0.000351888
372.0, 0.000211071
378.0, 0.00100471
384.0, 5.32405e-05
390.0, 0.00110333
396.0, 0.00248946
402.0, 0.00549425
408.0, 0.00850624
414.0, 0.00869044
420.0, 0.0105611
426.0, 0.0103686
432.0, 0.0102348
438.0, 0.00693377
444.0, 0.00320405
450.0, 0.00118693
456.0, 0.000540383
462.0, 0.000271883
468.0, 0.000725699
474.0, 0.00157474
480.0, 0.00150196
486.0, 0.00804549
492.0, 0.0279027
498.0, 0.106716
504.0, 0.533292
510.0, 0.745358
516.0, 0.99254
522.0, 0.495127
528.0, 0.131067
534.0, 0.0677737
540.0, 0.0428813
546.0, 0.0305336
552.0, 0.0216317
558.0, 0.0126842
564.0, 0.00648514
570.0, 0.00490211
576.0, 0.00119925
582.0, 0.000867681
588.0, 0.000481754
594.0, 0.000120982
600.0, 0.000507554
606.0, 0.00106832
612.0, 0.0022488
618.0, 0.0021859
624.0, 0.00133802
630.0, 0.00118568
636.0, 0.000328808
642.0, 0.00134007
648.0, 0.00108934
654.0, 0.00239483
660.0, 0.00399416
666.0, 0.00355778
672.0, 0.0033887
678.0, 0.00408194
684.0, 0.00153004
690.0, 0.00034024
696.0, 0.000940745
702.0, 0.000270465
708.0, 0.00163674
714.0, 0.000428249
720.0, 0.000990951
726.0, 0.000490542
732.0, 0.00146223
738.0, 0.00184883
744.0, 0.00175196
750.0, 0.00203062
756.0, 0.0019141
762.0, 0.00108982
768.0, 0.000554835
774.0, 0.000233139
780.0, 0.000804802
786.0, 0.000141325
792.0, 0.00127871
798.0, 0.00149669
804.0, 0.00261809
810.0, 0.00110155
816.0, 0.00166802
822.0, 0.00223828
828.0, 0.00150451
834.0, 0.000210519
840.0, 0.00193115
846.0, 0.00162825
852.0, 7.74185e-05
858.0, 0.00229936
864.0, 0.000663163
870.0, 0.00187402
876.0, 0.000310646
882.0, 0.000694257
888.0, 0.00131278
894.0, 0.000710135
900.0, 0.00064605
906.0, 0.000389225
912.0, 0.0028559
918.0, 0.0108944
924.0, 0.0266199
930.0, 0.0460031
936.0, 0.0474632
942.0, 0.0430866
948.0, 0.0391134
954.0, 0.0364332
960.0, 0.0326519
966.0, 0.0314854
972.0, 0.0273367
978.0, 0.0245525
984.0, 0.0182749
990.0, 0.00961267
996.0, 0.00497662
1002.0, 0.00361044
1008.0, 0.00314654
1014.0, 0.00215913
1020.0, 0.000794543
1026.0, 0.000842674
1032.0, 0.000646143
1038.0, 0.000274033
1044.0, 0.000333422
1050.0, 0.00104976
1056.0, 0.00136976
1062.0, 0.00107097
1068.0, 0.000708345
1074.0, 0.000627416
1080.0, 0.00146508
1086.0, 0.00203092
1092.0, 0.00195159
1098.0, 0.000930283
1104.0, 0.00125504
1110.0, 0.00176441
1116.0, 0.00153668
1122.0, 0.00274713
1128.0, 0.00184905
1134.0, 0.000231088
1140.0, 0.00169028
1146.0, 0.000642255
1152.0, 0.000394849
1158.0, 3.38174e-05
1164.0, 0.00252372
1170.0, 0.000631286
1176.0, 0.000738535
1182.0, 0.000877207
1188.0, 0.00128764
1194.0, 0.000512077
1200.0, 0.00144472
1206.0, 0.00209803
1212.0, 0.0016693
1218.0, 0.000220075
1224.0, 0.000719075
1230.0, 0.000149517
1236.0, 0.000879218
1242.0, 0.00177461
1248.0, 0.0015645
1254.0, 0.00165502
1260.0, 0.00246489
1266.0, 0.000927096
1272.0, 0.00114283
1278, 0.0
1284, 0.0
1290, 0.0
1296, 0.0
1302, 0.0
1308, 0.0
1314, 0.0
1320, 0.0
1326, 0.0
1332, 0.0
1338, 0.0
1344, 0.0
1350, 0.0
1356, 0.0
1362, 0.0
1368, 0.0
1374, 0.0
1380, 0.0
1386, 0.0
1392, 0.0
1398, 0.0
1404, 0.0
1410, 0.0
1416, 0.0
1422, 0.0
1428, 0.0
1434, 0.0
1440, 0.0
1446, 0.0
1452, 0.0
1458, 0.0
1464, 0.0
1470, 0.0
1476, 0.0
1482, 0.0
1488, 0.0
1494, 0.0
1500, 0.0
1506, 0.0
1512, 0.0
1518, 0.0
1524, 0.0
1530, 0.0
1536, 0.0
1542, 0.0
1548, 0.0
1554, 0.0
1560, 0.0
1566, 0.0
1572, 0.0
1578, 0.0
1584, 0.0
1590, 0.0
1596, 0.0
1599, 0.0