File: raw data/Dataset_2/CopperIItetraamminenitrate/CopperIItetraamminenitrate__R060941__Raman__785__0__unoriented__Raman_Data_Processed__17210.txt
30, 0.0
36, 0.0
42, 0.0
48, 0.0
54, 0.0
60, 0.0
66, 0.0
72, 0.0
78, 0.0
84, 0.0
90, 0.0
96, 0.0
102, 0.0
108, 0.0
114, 0.0
120, 0.0
126, 0.0
132, 0.0
138, 0.0
144.0, 0.0019869
150.0, 0.0192429
156.0, 0.0200024
162.0, 0.0202241
168.0, 0.0211456
174.0, 0.0170712
180.0, 0.0102291
186.0, 0.00847304
192.0, 0.00792611
198.0, 0.00700596
204.0, 0.00296345
210.0, 0.0006404
216.0, 0.0012345
222.0, 0.00118558
228.0, 0.00102721
234.0, 0.000376885
240.0, 0.00208715
246.0, 0.000545898
252.0, 0.0050048
258.0, 0.00765805
264.0, 0.014972
270.0, 0.0224529
276.0, 0.0287448
282.0, 0.0388611
288.0, 0.0538205
294.0, 0.0570967
300.0, 0.0638607
306.0, 0.0514289
312.0, 0.0274163
318.0, 0.0138731
324.0, 0.00877248
330.0, 0.00427383
336.0, 0.00196908
342.0, 0.00460626
348.0, 0.00428958
354.0, 0.00393801
360.0, 0.000434422
366.0, 0.00169895
372.0, 0.00268309
378.0, 0.0054459
384.0, 0.00619335
390.0, 0.00801404
396.0, 0.00798833
402.0, 0.0117286
408.0, 0.0254301
414.0, 0.0414659
420.0, 0.0696553
426.0, 0.0864694
432.0, 0.0637554
438.0, 0.028461
444.0, 0.0126535
450.0, 0.0070623
456.0, 0.00293276
462.0, 0.00317694
468.0, 0.00210708
474.0, 0.00378822
480.0, 0.000418399
486.0, 0.000637493
492.0, 0.00358352
498.0, 0.00188371
504.0, 0.0015307
510.0, 0.00323366
516.0, 0.00223743
522.0, 0.000547028
528.0, 0.0048382
534.0, 0.00184625
540.0, 0.00132298
546.0, 0.00295476
552.0, 0.0016379
558.0, 0.0027194
564.0, 0.000679992
570.0, 0.000607262
576.0, 0.00171354
582.0, 0.00342802
588.0, 0.00416487
594.0, 0.000958267
600.0, 0.00451309
606.0, 0.000688329
612.0, 0.00451084
618.0, 0.00436501
624.0, 0.00480513
630.0, 0.0035307
636.0, 0.00428138
642.0, 0.00131371
648.0, 0.000941914
654.0, 0.00106323
660.0, 0.00214055
666.0, 0.00128835
672.0, 0.00123981
678.0, 0.00163648
684.0, 0.00304103
690.0, 0.00401649
696.0, 0.00734159
702.0, 0.0178583
708.0, 0.0503275
714.0, 0.0419115
720.0, 0.0388772
726.0, 0.00539273
732.0, 0.0023782
738.0, 0.00403664
744.0, 0.00200831
750.0, 0.00366737
756.0, 0.00417662
762.0, 0.00529265
768.0, 0.00432825
774.0, 0.00111755
780.0, 0.00150872
786.0, 0.00139823
792.0, 0.00263478
798.0, 0.000314154
804.0, 0.00180607
810.0, 0.00100436
816.0, 0.0032626
822.0, 0.000585323
828.0, 0.00168032
834.0, 0.000780304
840.0, 0.000323351
846.0, 0.00349808
852.0, 0.00174713
858.0, 0.00470492
864.0, 0.000481524
870.0, 0.00404552
876.0, 0.00279654
882.0, 0.00255157
888.0, 0.002566
894.0, 0.00167013
900.0, 0.00055295
906.0, 0.00100082
912.0, 0.00162252
918.0, 0.0023191
924.0, 0.000836509
930.0, 0.000930414
936.0, 0.0025636
942.0, 0.00429811
948.0, 0.00202356
954.0, 0.00137498
960.0, 0.00244266
966.0, 0.00164572
972.0, 0.000867481
978.0, 0.000888226
984.0, 0.00153303
990.0, 0.00023662
996.0, 0.00287943
1002.0, 0.00162931
1008.0, 0.00320006
1014.0, 0.00115989
1020.0, 0.00484276
1026.0, 0.00832419
1032.0, 0.0144739
1038.0, 0.0762143
1044.0, 0.354365
1050.0, 0.963657
1056.0, 0.15632
1062.0, 0.0145947
1068.0, 0.00700833
1074.0, 0.00202457
1080.0, 0.00372852
1086.0, 0.00243031
1092.0, 0.00193627
1098.0, 0.000987377
1104.0, 0.003023
1110.0, 0.00375367
1116.0, 0.00267186
1122.0, 0.00285069
1128.0, 0.00313554
1134.0, 0.00262052
1140.0, 0.00236824
1146.0, 0.00262088
1152.0, 0.00253615
1158.0, 0.00128643
1164.0, 0.0015339
1170.0, 0.00200925
1176.0, 0.0018631
1182.0, 0.00118797
1188.0, 0.00112652
1194.0, 0.00220123
1200.0, 0.00207432
1206.0, 0.00542807
1212.0, 0.00390571
1218.0, 0.0105468
1224.0, 0.00910843
1230.0, 0.00693768
1236.0, 0.00239846
1242, 0.0
1248, 0.0
1254, 0.0
1260, 0.0
1266, 0.0
1272, 0.0
1278, 0.0
1284, 0.0
1290, 0.0
1296, 0.0
1302, 0.0
1308, 0.0
1314, 0.0
1320, 0.0
1326, 0.0
1332, 0.0
1338, 0.0
1344, 0.0
1350, 0.0
1356, 0.0
1362, 0.0
1368, 0.0
1374, 0.0
1380, 0.0
1386, 0.0
1392, 0.0
1398, 0.0
1404, 0.0
1410, 0.0
1416, 0.0
1422, 0.0
1428, 0.0
1434, 0.0
1440, 0.0
1446, 0.0
1452, 0.0
1458, 0.0
1464, 0.0
1470, 0.0
1476, 0.0
1482, 0.0
1488, 0.0
1494, 0.0
1500, 0.0
1506, 0.0
1512, 0.0
1518, 0.0
1524, 0.0
1530, 0.0
1536, 0.0
1542, 0.0
1548, 0.0
1554, 0.0
1560, 0.0
1566, 0.0
1572, 0.0
1578, 0.0
1584, 0.0
1590, 0.0
1596, 0.0
1599, 0.0