File: raw data/Dataset_2/CopperIItetraamminenitrate/CopperIItetraamminenitrate__R060941__Raman__532__0__unoriented__Raman_Data_Processed__17208.txt
30, 0.0
36, 0.0
42, 0.0
48, 0.0
54, 0.0
60, 0.0
66, 0.0
72, 0.0
78, 0.0
84, 0.0
90, 0.0
96, 0.0
102, 0.0
108, 0.0
114, 0.0
120, 0.0
126, 0.0
132.0, 0.00576191
138.0, 0.019495
144.0, 0.0135012
150.0, 0.0217813
156.0, 0.0237614
162.0, 0.0167641
168.0, 0.0148108
174.0, 0.0126314
180.0, 0.00902807
186.0, 0.00598716
192.0, 0.0133755
198.0, 0.00433134
204.0, 0.00145035
210.0, 0.00115498
216.0, 0.00100036
222.0, 0.000842571
228.0, 0.00310846
234.0, 0.00231481
240.0, 0.00210944
246.0, 0.00524725
252.0, 0.0103563
258.0, 0.0195009
264.0, 0.020863
270.0, 0.0275719
276.0, 0.0357912
282.0, 0.0457515
288.0, 0.0592995
294.0, 0.0672058
300.0, 0.0724138
306.0, 0.06273
312.0, 0.034071
318.0, 0.019048
324.0, 0.00874304
330.0, 0.0062971
336.0, 0.00460252
342.0, 0.0014933
348.0, 0.00279605
354.0, 0.00111244
360.0, 0.00141168
366.0, 0.000401465
372.0, 0.00457355
378.0, 0.00342753
384.0, 0.00335999
390.0, 0.00724662
396.0, 0.00993643
402.0, 0.0127593
408.0, 0.0212386
414.0, 0.0404898
420.0, 0.0618764
426.0, 0.073833
432.0, 0.0516776
438.0, 0.0242788
444.0, 0.0118482
450.0, 0.00392329
456.0, 0.000252315
462.0, 0.00421246
468.0, 0.00192923
474.0, 0.00431826
480.0, 0.00102765
486.0, 0.000678877
492.0, 0.00122846
498.0, 0.000676304
504.0, 0.000199838
510.0, 0.000636244
516.0, 0.000488771
522.0, 0.00072252
528.0, 0.000105197
534.0, 0.00482225
540.0, 0.00300493
546.0, 0.00513801
552.0, 0.00577544
558.0, 0.0014846
564.0, 0.00180998
570.0, 0.0022282
576.0, 0.00211656
582.0, 0.00060703
588.0, 0.000186668
594.0, 0.0018956
600.0, 0.00443419
606.0, 0.00424508
612.0, 0.0059276
618.0, 0.00163324
624.0, 0.00305977
630.0, 0.00427396
636.0, 0.00261191
642.0, 0.00359608
648.0, 0.0013506
654.0, 0.000471395
660.0, 0.00139438
666.0, 0.00597641
672.0, 0.00122703
678.0, 0.0010943
684.0, 0.00469132
690.0, 0.00368974
696.0, 0.00696266
702.0, 0.0173384
708.0, 0.0475631
714.0, 0.0444518
720.0, 0.0381867
726.0, 0.0085239
732.0, 0.00111944
738.0, 0.00346695
744.0, 0.0037391
750.0, 0.00374207
756.0, 0.00223303
762.0, 0.00431759
768.0, 0.00338729
774.0, 0.00234411
780.0, 0.00107605
786.0, 0.000973199
792.0, 0.00261913
798.0, 0.00275525
804.0, 0.000275874
810.0, 0.00259162
816.0, 0.00247957
822.0, 0.00126512
828.0, 0.00267464
834.0, 0.00123361
840.0, 0.00255421
846.0, 0.00491941
852.0, 0.00565345
858.0, 0.00170675
864.0, 0.00274854
870.0, 0.000878028
876.0, 0.0030378
882.0, 0.00358782
888.0, 0.00034367
894.0, 0.00407546
900.0, 0.00250969
906.0, 0.00386373
912.0, 0.00387554
918.0, 0.0015489
924.0, 0.0040531
930.0, 0.00499213
936.0, 0.00341174
942.0, 0.00411855
948.0, 0.00219318
954.0, 0.00354602
960.0, 0.00271215
966.0, 0.00181307
972.0, 0.000852648
978.0, 0.00140442
984.0, 0.00503457
990.0, 0.00269927
996.0, 0.00434671
1002.0, 0.00516033
1008.0, 0.000847534
1014.0, 0.00480712
1020.0, 0.00413278
1026.0, 0.0119596
1032.0, 0.0186321
1038.0, 0.0694766
1044.0, 0.390969
1050.0, 0.934068
1056.0, 0.161934
1062.0, 0.0171825
1068.0, 0.00825044
1074.0, 0.00551723
1080.0, 0.00282262
1086.0, 0.0014767
1092.0, 0.0041776
1098.0, 0.000452656
1104.0, 0.00476933
1110.0, 0.00427671
1116.0, 0.000370918
1122.0, 0.00283184
1128.0, 0.00279438
1134.0, 0.00140144
1140.0, 0.0042352
1146.0, 0.00272116
1152.0, 0.00222063
1158.0, 0.0012336
1164.0, 0.00376967
1170.0, 0.00225679
1176.0, 0.00397057
1182.0, 0.00498726
1188.0, 0.0034451
1194.0, 0.0076293
1200.0, 0.000809591
1206.0, 0.00877162
1212.0, 0.0119202
1218.0, 0.0182144
1224.0, 0.0183891
1230.0, 0.0136719
1236.0, 0.00853508
1242.0, 0.00135187
1248.0, 0.00504511
1254.0, 0.0066132
1260.0, 0.00604221
1266.0, 0.00359511
1272.0, 0.00997915
1278.0, 0.00532714
1284.0, 0.00186668
1290.0, 0.00389177
1296.0, 0.00340757
1302.0, 0.00660871
1308.0, 0.00388239
1314, 0.0
1320, 0.0
1326, 0.0
1332, 0.0
1338, 0.0
1344, 0.0
1350, 0.0
1356, 0.0
1362, 0.0
1368, 0.0
1374, 0.0
1380, 0.0
1386, 0.0
1392, 0.0
1398, 0.0
1404, 0.0
1410, 0.0
1416, 0.0
1422, 0.0
1428, 0.0
1434, 0.0
1440, 0.0
1446, 0.0
1452, 0.0
1458, 0.0
1464, 0.0
1470, 0.0
1476, 0.0
1482, 0.0
1488, 0.0
1494, 0.0
1500, 0.0
1506, 0.0
1512, 0.0
1518, 0.0
1524, 0.0
1530, 0.0
1536, 0.0
1542, 0.0
1548, 0.0
1554, 0.0
1560, 0.0
1566, 0.0
1572, 0.0
1578, 0.0
1584, 0.0
1590, 0.0
1596, 0.0
1599, 0.0