File: raw data/Dataset_2/GlassPr/GlassPr__R110076__Raman__780__0__unoriented__Raman_Data_Processed__35486.txt
30, 0.0
36, 0.0
42, 0.0
48, 0.0
54, 0.0
60, 0.0
66, 0.0
72, 0.0
78, 0.0
84, 0.0
90, 0.0
96.0, 0.997564
102.0, 0.916893
108.0, 0.88607
114.0, 0.855729
120.0, 0.827841
126.0, 0.813737
132.0, 0.793016
138.0, 0.774389
144.0, 0.748281
150.0, 0.729184
156.0, 0.723903
162.0, 0.704714
168.0, 0.689891
174.0, 0.679168
180.0, 0.6695
186.0, 0.6532
192.0, 0.645433
198.0, 0.637558
204.0, 0.632551
210.0, 0.625077
216.0, 0.613758
222.0, 0.617491
228.0, 0.602152
234.0, 0.603184
240.0, 0.592794
246.0, 0.590863
252.0, 0.585195
258.0, 0.584011
264.0, 0.579782
270.0, 0.578013
276.0, 0.572042
282.0, 0.566229
288.0, 0.568567
294.0, 0.571835
300.0, 0.56701
306.0, 0.566737
312.0, 0.567814
318.0, 0.573358
324.0, 0.572248
330.0, 0.570263
336.0, 0.571372
342.0, 0.569925
348.0, 0.573437
354.0, 0.568464
360.0, 0.573513
366.0, 0.57443
372.0, 0.572106
378.0, 0.56582
384.0, 0.566794
390.0, 0.564014
396.0, 0.562787
402.0, 0.560932
408.0, 0.555727
414.0, 0.556394
420.0, 0.555049
426.0, 0.553418
432.0, 0.557377
438.0, 0.55584
444.0, 0.560444
450.0, 0.557058
456.0, 0.556308
462.0, 0.549815
468.0, 0.546587
474.0, 0.535216
480.0, 0.531966
486.0, 0.525753
492.0, 0.51687
498.0, 0.509357
504.0, 0.50772
510.0, 0.489727
516.0, 0.474013
522.0, 0.451614
528.0, 0.439275
534.0, 0.417995
540.0, 0.400812
546.0, 0.38244
552.0, 0.36901
558.0, 0.357971
564.0, 0.353189
570.0, 0.344295
576.0, 0.335443
582.0, 0.325884
588.0, 0.313047
594.0, 0.303439
600.0, 0.293691
606.0, 0.280007
612.0, 0.268588
618.0, 0.256799
624.0, 0.243263
630.0, 0.231802
636.0, 0.229367
642.0, 0.217447
648.0, 0.208226
654.0, 0.2005
660.0, 0.193041
666.0, 0.181392
672.0, 0.172726
678.0, 0.160824
684.0, 0.151576
690.0, 0.135135
696.0, 0.13272
702.0, 0.120918
708.0, 0.11596
714.0, 0.110606
720.0, 0.100703
726.0, 0.0951531
732.0, 0.0899183
738.0, 0.0853306
744.0, 0.0801057
750.0, 0.075376
756.0, 0.0729981
762.0, 0.0709661
768.0, 0.0669339
774.0, 0.0648527
780.0, 0.0604883
786.0, 0.0599605
792.0, 0.0543624
798.0, 0.0489372
804.0, 0.0415554
810.0, 0.0387493
816.0, 0.031029
822.0, 0.0262287
828.0, 0.0220447
834.0, 0.0205267
840.0, 0.0223887
846.0, 0.0201597
852.0, 0.0323328
858.0, 0.0358179
864.0, 0.0438756
870.0, 0.0533359
876.0, 0.0603231
882.0, 0.0717372
888.0, 0.0823786
894.0, 0.0933094
900.0, 0.105252
906.0, 0.117335
912.0, 0.128877
918.0, 0.139781
924.0, 0.149416
930.0, 0.16065
936.0, 0.163829
942.0, 0.170584
948.0, 0.176935
954.0, 0.183504
960.0, 0.191482
966.0, 0.190664
972.0, 0.19814
978.0, 0.201234
984.0, 0.206217
990.0, 0.211885
996.0, 0.214478
1002.0, 0.215577
1008.0, 0.213881
1014.0, 0.217774
1020.0, 0.214307
1026.0, 0.215034
1032.0, 0.207827
1038.0, 0.198662
1044.0, 0.190804
1050.0, 0.180012
1056.0, 0.164471
1062.0, 0.152544
1068.0, 0.135861
1074.0, 0.122653
1080.0, 0.106561
1086.0, 0.0952919
1092.0, 0.0822921
1098.0, 0.0736641
1104.0, 0.0629693
1110.0, 0.0553903
1116.0, 0.0496035
1122.0, 0.0394713
1128.0, 0.0380288
1134.0, 0.0321927
1140.0, 0.0281617
1146.0, 0.0217531
1152.0, 0.0218768
1158.0, 0.0179386
1164.0, 0.0178518
1170.0, 0.0168925
1176.0, 0.0161397
1182.0, 0.0140158
1188.0, 0.00886153
1194.0, 0.0113079
1200.0, 0.0119312
1206.0, 0.00609936
1212.0, 0.0066721
1218.0, 0.00623246
1224.0, 0.00532946
1230.0, 0.00793754
1236.0, 0.00691359
1242.0, 0.00267609
1248.0, 0.00274898
1254.0, 0.0034659
1260.0, 0.00391621
1266.0, 0.00617994
1272.0, 0.00741047
1278.0, 0.00641405
1284, 0.0
1290, 0.0
1296, 0.0
1302, 0.0
1308, 0.0
1314, 0.0
1320, 0.0
1326, 0.0
1332, 0.0
1338, 0.0
1344, 0.0
1350, 0.0
1356, 0.0
1362, 0.0
1368, 0.0
1374, 0.0
1380, 0.0
1386, 0.0
1392, 0.0
1398, 0.0
1404, 0.0
1410, 0.0
1416, 0.0
1422, 0.0
1428, 0.0
1434, 0.0
1440, 0.0
1446, 0.0
1452, 0.0
1458, 0.0
1464, 0.0
1470, 0.0
1476, 0.0
1482, 0.0
1488, 0.0
1494, 0.0
1500, 0.0
1506, 0.0
1512, 0.0
1518, 0.0
1524, 0.0
1530, 0.0
1536, 0.0
1542, 0.0
1548, 0.0
1554, 0.0
1560, 0.0
1566, 0.0
1572, 0.0
1578, 0.0
1584, 0.0
1590, 0.0
1596, 0.0
1599, 0.0