File: raw data/Dataset_2/GlassTm/GlassTm__R110085__Raman__780__0__unoriented__Raman_Data_Processed__35511.txt
30, 0.0
36, 0.0
42, 0.0
48, 0.0
54, 0.0
60, 0.0
66, 0.0
72, 0.0
78, 0.0
84, 0.0
90, 0.0
96, 0.0
102.0, 0.734209
108.0, 0.760948
114.0, 0.791923
120.0, 0.819974
126.0, 0.849415
132.0, 0.873604
138.0, 0.896971
144.0, 0.922116
150.0, 0.942251
156.0, 0.958507
162.0, 0.975871
168.0, 0.984797
174.0, 0.99376
180.0, 0.997334
186.0, 0.999982
192.0, 0.996634
198.0, 0.995442
204.0, 0.980838
210.0, 0.967428
216.0, 0.953855
222.0, 0.9394
228.0, 0.923481
234.0, 0.908992
240.0, 0.898524
246.0, 0.886329
252.0, 0.872504
258.0, 0.867457
264.0, 0.86255
270.0, 0.863011
276.0, 0.863616
282.0, 0.865546
288.0, 0.870752
294.0, 0.87618
300.0, 0.88461
306.0, 0.897918
312.0, 0.907861
318.0, 0.915911
324.0, 0.923757
330.0, 0.934384
336.0, 0.940253
342.0, 0.946431
348.0, 0.947488
354.0, 0.949416
360.0, 0.943443
366.0, 0.937524
372.0, 0.929876
378.0, 0.91973
384.0, 0.908755
390.0, 0.895287
396.0, 0.883561
402.0, 0.87198
408.0, 0.857441
414.0, 0.84689
420.0, 0.833398
426.0, 0.821207
432.0, 0.811656
438.0, 0.799154
444.0, 0.790553
450.0, 0.778936
456.0, 0.766271
462.0, 0.757611
468.0, 0.746866
474.0, 0.736872
480.0, 0.722995
486.0, 0.710404
492.0, 0.698841
498.0, 0.687099
504.0, 0.673086
510.0, 0.659243
516.0, 0.643261
522.0, 0.626728
528.0, 0.609851
534.0, 0.59282
540.0, 0.575859
546.0, 0.556083
552.0, 0.537634
558.0, 0.521359
564.0, 0.502206
570.0, 0.48331
576.0, 0.463486
582.0, 0.444394
588.0, 0.425298
594.0, 0.407616
600.0, 0.390036
606.0, 0.374015
612.0, 0.355168
618.0, 0.339543
624.0, 0.323553
630.0, 0.30978
636.0, 0.29407
642.0, 0.280383
648.0, 0.268334
654.0, 0.255738
660.0, 0.24292
666.0, 0.232775
672.0, 0.22257
678.0, 0.211714
684.0, 0.20255
690.0, 0.194024
696.0, 0.185541
702.0, 0.17822
708.0, 0.171108
714.0, 0.164414
720.0, 0.158489
726.0, 0.151645
732.0, 0.146421
738.0, 0.140212
744.0, 0.134782
750.0, 0.130366
756.0, 0.125814
762.0, 0.120085
768.0, 0.116282
774.0, 0.112003
780.0, 0.108802
786.0, 0.104921
792.0, 0.100263
798.0, 0.0976324
804.0, 0.0936049
810.0, 0.0908814
816.0, 0.0868278
822.0, 0.0841814
828.0, 0.0819265
834.0, 0.0780716
840.0, 0.0762336
846.0, 0.0730302
852.0, 0.0704563
858.0, 0.067574
864.0, 0.0649197
870.0, 0.0630132
876.0, 0.0600769
882.0, 0.0584126
888.0, 0.0558605
894.0, 0.0537765
900.0, 0.0513453
906.0, 0.0498196
912.0, 0.0476743
918.0, 0.0463821
924.0, 0.0438488
930.0, 0.0429175
936.0, 0.0405646
942.0, 0.0393496
948.0, 0.038114
954.0, 0.0363026
960.0, 0.0346137
966.0, 0.033434
972.0, 0.0324008
978.0, 0.0307067
984.0, 0.0292252
990.0, 0.0286599
996.0, 0.0277056
1002.0, 0.0264588
1008.0, 0.0255872
1014.0, 0.0240454
1020.0, 0.023545
1026.0, 0.0223723
1032.0, 0.0215955
1038.0, 0.0205982
1044.0, 0.0199359
1050.0, 0.018733
1056.0, 0.0183476
1062.0, 0.0176174
1068.0, 0.016648
1074.0, 0.01592
1080.0, 0.0152609
1086.0, 0.0145201
1092.0, 0.0140901
1098.0, 0.0131741
1104.0, 0.0127949
1110.0, 0.0120865
1116.0, 0.0112714
1122.0, 0.0105301
1128.0, 0.0102672
1134.0, 0.00953608
1140.0, 0.00933983
1146.0, 0.00905451
1152.0, 0.00838942
1158.0, 0.00775321
1164.0, 0.00721396
1170.0, 0.0065982
1176.0, 0.00653581
1182.0, 0.00581957
1188.0, 0.00557335
1194.0, 0.00476052
1200.0, 0.00456725
1206.0, 0.00413127
1212.0, 0.00385344
1218.0, 0.00360322
1224.0, 0.0030294
1230.0, 0.00238753
1236.0, 0.00244516
1242.0, 0.00219212
1248.0, 0.00182112
1254.0, 0.00133338
1260.0, 0.00144463
1266.0, 0.000946231
1272.0, 0.000539166
1278.0, 0.000436331
1284.0, 0.000255162
1290, 0.0
1296, 0.0
1302, 0.0
1308, 0.0
1314, 0.0
1320, 0.0
1326, 0.0
1332, 0.0
1338, 0.0
1344, 0.0
1350, 0.0
1356, 0.0
1362, 0.0
1368, 0.0
1374, 0.0
1380, 0.0
1386, 0.0
1392, 0.0
1398, 0.0
1404, 0.0
1410, 0.0
1416, 0.0
1422, 0.0
1428, 0.0
1434, 0.0
1440, 0.0
1446, 0.0
1452, 0.0
1458, 0.0
1464, 0.0
1470, 0.0
1476, 0.0
1482, 0.0
1488, 0.0
1494, 0.0
1500, 0.0
1506, 0.0
1512, 0.0
1518, 0.0
1524, 0.0
1530, 0.0
1536, 0.0
1542, 0.0
1548, 0.0
1554, 0.0
1560, 0.0
1566, 0.0
1572, 0.0
1578, 0.0
1584, 0.0
1590, 0.0
1596, 0.0
1599, 0.0