File: raw data/Dataset_2/GlassTm/GlassTm__R110085__Raman__532__0__unoriented__Raman_Data_Processed__35509.txt
30, 0.0
36, 0.0
42, 0.0
48, 0.0
54, 0.0
60, 0.0
66, 0.0
72, 0.0
78, 0.0
84, 0.0
90, 0.0
96, 0.0
102, 0.0
108, 0.0
114, 0.0
120, 0.0
126, 0.0
132, 0.0
138, 0.0
144, 0.0
150, 0.0
156, 0.0
162, 0.0
168, 0.0
174, 0.0
180, 0.0
186, 0.0
192.0, 0.977961
198.0, 0.983931
204.0, 0.991245
210.0, 0.977362
216.0, 0.973304
222.0, 0.959956
228.0, 0.961087
234.0, 0.956901
240.0, 0.942881
246.0, 0.933322
252.0, 0.927449
258.0, 0.921473
264.0, 0.914467
270.0, 0.908052
276.0, 0.909371
282.0, 0.901333
288.0, 0.885849
294.0, 0.892685
300.0, 0.893718
306.0, 0.887419
312.0, 0.88114
318.0, 0.884447
324.0, 0.881289
330.0, 0.876176
336.0, 0.879433
342.0, 0.876173
348.0, 0.870804
354.0, 0.86985
360.0, 0.864686
366.0, 0.865483
372.0, 0.861645
378.0, 0.843643
384.0, 0.842363
390.0, 0.834727
396.0, 0.825068
402.0, 0.804727
408.0, 0.807457
414.0, 0.799284
420.0, 0.782947
426.0, 0.771808
432.0, 0.767987
438.0, 0.752688
444.0, 0.744552
450.0, 0.745026
456.0, 0.737542
462.0, 0.741444
468.0, 0.728385
474.0, 0.714675
480.0, 0.71031
486.0, 0.712468
492.0, 0.705503
498.0, 0.705832
504.0, 0.699254
510.0, 0.704002
516.0, 0.70117
522.0, 0.689413
528.0, 0.695606
534.0, 0.680216
540.0, 0.669536
546.0, 0.670351
552.0, 0.666633
558.0, 0.659137
564.0, 0.653195
570.0, 0.641752
576.0, 0.623584
582.0, 0.620148
588.0, 0.57968
594.0, 0.565334
600.0, 0.53633
606.0, 0.511851
612.0, 0.492304
618.0, 0.474695
624.0, 0.459299
630.0, 0.451413
636.0, 0.45323
642.0, 0.451583
648.0, 0.450816
654.0, 0.461577
660.0, 0.459292
666.0, 0.456283
672.0, 0.452417
678.0, 0.44634
684.0, 0.441458
690.0, 0.436651
696.0, 0.432442
702.0, 0.417301
708.0, 0.406349
714.0, 0.399
720.0, 0.378083
726.0, 0.372229
732.0, 0.359326
738.0, 0.345775
744.0, 0.324265
750.0, 0.317616
756.0, 0.298184
762.0, 0.275654
768.0, 0.264232
774.0, 0.240973
780.0, 0.222889
786.0, 0.220688
792.0, 0.201478
798.0, 0.195116
804.0, 0.197261
810.0, 0.205298
816.0, 0.215696
822.0, 0.237415
828.0, 0.258872
834.0, 0.291534
840.0, 0.326437
846.0, 0.376236
852.0, 0.418849
858.0, 0.475314
864.0, 0.523993
870.0, 0.565405
876.0, 0.613364
882.0, 0.649298
888.0, 0.681645
894.0, 0.712035
900.0, 0.730395
906.0, 0.754913
912.0, 0.766792
918.0, 0.782963
924.0, 0.798055
930.0, 0.805175
936.0, 0.800509
942.0, 0.804366
948.0, 0.814506
954.0, 0.807873
960.0, 0.790657
966.0, 0.784742
972.0, 0.764109
978.0, 0.749867
984.0, 0.727245
990.0, 0.710984
996.0, 0.678099
1002.0, 0.656254
1008.0, 0.630004
1014.0, 0.597013
1020.0, 0.56818
1026.0, 0.532674
1032.0, 0.501833
1038.0, 0.473138
1044.0, 0.431267
1050.0, 0.405586
1056.0, 0.37519
1062.0, 0.34786
1068.0, 0.310871
1074.0, 0.28677
1080.0, 0.260573
1086.0, 0.233147
1092.0, 0.211779
1098.0, 0.187415
1104.0, 0.161836
1110.0, 0.145967
1116.0, 0.126492
1122.0, 0.106478
1128.0, 0.0930924
1134.0, 0.0765846
1140.0, 0.0694318
1146.0, 0.0670962
1152.0, 0.0576625
1158.0, 0.049275
1164.0, 0.0465727
1170.0, 0.0373577
1176.0, 0.034884
1182.0, 0.0277253
1188.0, 0.0160231
1194.0, 0.0254273
1200.0, 0.0182153
1206.0, 0.0126196
1212.0, 0.0137085
1218.0, 0.0103367
1224.0, 0.0126958
1230.0, 0.0117435
1236.0, 0.00814362
1242.0, 0.00802008
1248.0, 0.00371783
1254.0, 0.00696919
1260.0, 0.00240272
1266.0, 0.00621794
1272.0, 0.00195897
1278.0, 0.00579437
1284.0, 0.00418487
1290.0, 0.0106843
1296.0, 0.0100876
1302.0, 0.0112611
1308, 0.0
1314, 0.0
1320, 0.0
1326, 0.0
1332, 0.0
1338, 0.0
1344, 0.0
1350, 0.0
1356, 0.0
1362, 0.0
1368, 0.0
1374, 0.0
1380, 0.0
1386, 0.0
1392, 0.0
1398, 0.0
1404, 0.0
1410, 0.0
1416, 0.0
1422, 0.0
1428, 0.0
1434, 0.0
1440, 0.0
1446, 0.0
1452, 0.0
1458, 0.0
1464, 0.0
1470, 0.0
1476, 0.0
1482, 0.0
1488, 0.0
1494, 0.0
1500, 0.0
1506, 0.0
1512, 0.0
1518, 0.0
1524, 0.0
1530, 0.0
1536, 0.0
1542, 0.0
1548, 0.0
1554, 0.0
1560, 0.0
1566, 0.0
1572, 0.0
1578, 0.0
1584, 0.0
1590, 0.0
1596, 0.0
1599, 0.0