File: raw data/Dataset_2/GlassGd/GlassGd__R110080__Raman__532__0__unoriented__Raman_Data_Processed__35499.txt
30, 0.0
36, 0.0
42, 0.0
48, 0.0
54, 0.0
60, 0.0
66, 0.0
72, 0.0
78, 0.0
84, 0.0
90, 0.0
96, 0.0
102, 0.0
108, 0.0
114, 0.0
120, 0.0
126, 0.0
132, 0.0
138, 0.0
144, 0.0
150, 0.0
156, 0.0
162, 0.0
168, 0.0
174, 0.0
180, 0.0
186, 0.0
192.0, 0.0177016
198.0, 0.0190174
204.0, 0.0205403
210.0, 0.0196423
216.0, 0.0195983
222.0, 0.0179045
228.0, 0.0172459
234.0, 0.0176403
240.0, 0.0168141
246.0, 0.0140125
252.0, 0.0173056
258.0, 0.0158
264.0, 0.0153846
270.0, 0.0166493
276.0, 0.016299
282.0, 0.0160418
288.0, 0.0159351
294.0, 0.0170714
300.0, 0.0180979
306.0, 0.0186099
312.0, 0.0205564
318.0, 0.0214557
324.0, 0.0228969
330.0, 0.0239127
336.0, 0.0253818
342.0, 0.0255623
348.0, 0.0259294
354.0, 0.0262609
360.0, 0.0276414
366.0, 0.0280919
372.0, 0.0282939
378.0, 0.0269165
384.0, 0.0274645
390.0, 0.027088
396.0, 0.0270089
402.0, 0.0267936
408.0, 0.0277049
414.0, 0.0276207
420.0, 0.0272308
426.0, 0.0283698
432.0, 0.0295553
438.0, 0.0294219
444.0, 0.0293898
450.0, 0.0306947
456.0, 0.0304936
462.0, 0.0330692
468.0, 0.03177
474.0, 0.0310997
480.0, 0.0318275
486.0, 0.0328888
492.0, 0.0325289
498.0, 0.0338781
504.0, 0.0324263
510.0, 0.032957
516.0, 0.030732
522.0, 0.0285678
528.0, 0.0276135
534.0, 0.0260224
540.0, 0.0218936
546.0, 0.0192318
552.0, 0.0179238
558.0, 0.0168919
564.0, 0.0147717
570.0, 0.0154788
576.0, 0.0117843
582.0, 0.0127401
588.0, 0.00844864
594.0, 0.00666609
600.0, 0.00496585
606.0, 0.00281592
612.0, 0.00197529
618.0, 0.00176545
624.0, 0.000637253
630.0, 0.000484046
636.0, 0.00274787
642.0, 0.00344032
648.0, 0.00373769
654.0, 0.00584987
660.0, 0.00725298
666.0, 0.00673953
672.0, 0.00842377
678.0, 0.0095256
684.0, 0.00987012
690.0, 0.0107793
696.0, 0.0129529
702.0, 0.0121809
708.0, 0.0134517
714.0, 0.0147603
720.0, 0.0153287
726.0, 0.0174121
732.0, 0.0193283
738.0, 0.0211791
744.0, 0.022823
750.0, 0.0258104
756.0, 0.028045
762.0, 0.0287869
768.0, 0.0311256
774.0, 0.0320666
780.0, 0.0338147
786.0, 0.0352267
792.0, 0.0364188
798.0, 0.0367831
804.0, 0.0384388
810.0, 0.0402497
816.0, 0.0420366
822.0, 0.0451879
828.0, 0.0473111
834.0, 0.0519328
840.0, 0.0566032
846.0, 0.0645588
852.0, 0.0720224
858.0, 0.0804112
864.0, 0.0904397
870.0, 0.0995695
876.0, 0.110927
882.0, 0.122162
888.0, 0.134713
894.0, 0.148446
900.0, 0.160889
906.0, 0.175279
912.0, 0.189252
918.0, 0.207918
924.0, 0.224463
930.0, 0.244573
936.0, 0.262261
942.0, 0.288397
948.0, 0.315685
954.0, 0.349195
960.0, 0.38413
966.0, 0.426596
972.0, 0.472505
978.0, 0.522984
984.0, 0.578382
990.0, 0.639961
996.0, 0.696373
1002.0, 0.755172
1008.0, 0.814977
1014.0, 0.864799
1020.0, 0.911366
1026.0, 0.946926
1032.0, 0.9737
1038.0, 0.993689
1044.0, 0.998504
1050.0, 0.998986
1056.0, 0.987792
1062.0, 0.967085
1068.0, 0.937195
1074.0, 0.901851
1080.0, 0.86342
1086.0, 0.822697
1092.0, 0.7794
1098.0, 0.736596
1104.0, 0.691036
1110.0, 0.648952
1116.0, 0.604788
1122.0, 0.567614
1128.0, 0.530556
1134.0, 0.496217
1140.0, 0.470927
1146.0, 0.448064
1152.0, 0.427243
1158.0, 0.410303
1164.0, 0.399939
1170.0, 0.388551
1176.0, 0.383094
1182.0, 0.381536
1188.0, 0.379429
1194.0, 0.381844
1200.0, 0.381474
1206.0, 0.386393
1212.0, 0.392986
1218.0, 0.393532
1224.0, 0.401421
1230.0, 0.405402
1236.0, 0.406235
1242.0, 0.413723
1248.0, 0.414233
1254.0, 0.417111
1260.0, 0.416307
1266.0, 0.414599
1272.0, 0.411198
1278.0, 0.40834
1284.0, 0.40259
1290.0, 0.396232
1296.0, 0.387137
1302.0, 0.377541
1308, 0.0
1314, 0.0
1320, 0.0
1326, 0.0
1332, 0.0
1338, 0.0
1344, 0.0
1350, 0.0
1356, 0.0
1362, 0.0
1368, 0.0
1374, 0.0
1380, 0.0
1386, 0.0
1392, 0.0
1398, 0.0
1404, 0.0
1410, 0.0
1416, 0.0
1422, 0.0
1428, 0.0
1434, 0.0
1440, 0.0
1446, 0.0
1452, 0.0
1458, 0.0
1464, 0.0
1470, 0.0
1476, 0.0
1482, 0.0
1488, 0.0
1494, 0.0
1500, 0.0
1506, 0.0
1512, 0.0
1518, 0.0
1524, 0.0
1530, 0.0
1536, 0.0
1542, 0.0
1548, 0.0
1554, 0.0
1560, 0.0
1566, 0.0
1572, 0.0
1578, 0.0
1584, 0.0
1590, 0.0
1596, 0.0
1599, 0.0