File: raw data/Dataset_2/GlassGd/GlassGd__R110080__Raman__780__0__unoriented__Raman_Data_Processed__35498.txt
30, 0.0
36, 0.0
42, 0.0
48, 0.0
54, 0.0
60, 0.0
66, 0.0
72, 0.0
78, 0.0
84, 0.0
90, 0.0
96, 0.0
102, 0.0
108.0, 0.765933
114.0, 0.800521
120.0, 0.83173
126.0, 0.864479
132.0, 0.89322
138.0, 0.920441
144.0, 0.94565
150.0, 0.96483
156.0, 0.981699
162.0, 0.9927
168.0, 0.998122
174.0, 0.998074
180.0, 0.995409
186.0, 0.98681
192.0, 0.97408
198.0, 0.958734
204.0, 0.935363
210.0, 0.913257
216.0, 0.890938
222.0, 0.866269
228.0, 0.841852
234.0, 0.823379
240.0, 0.802586
246.0, 0.785864
252.0, 0.773657
258.0, 0.765205
264.0, 0.761384
270.0, 0.760361
276.0, 0.76075
282.0, 0.766428
288.0, 0.772532
294.0, 0.78275
300.0, 0.795074
306.0, 0.806972
312.0, 0.819978
318.0, 0.833571
324.0, 0.845064
330.0, 0.856841
336.0, 0.866959
342.0, 0.871652
348.0, 0.876431
354.0, 0.876075
360.0, 0.871524
366.0, 0.862552
372.0, 0.852326
378.0, 0.839108
384.0, 0.826448
390.0, 0.8111
396.0, 0.797097
402.0, 0.782221
408.0, 0.768049
414.0, 0.754155
420.0, 0.741309
426.0, 0.728222
432.0, 0.715867
438.0, 0.703604
444.0, 0.693709
450.0, 0.682307
456.0, 0.672421
462.0, 0.662531
468.0, 0.65158
474.0, 0.642254
480.0, 0.628506
486.0, 0.616756
492.0, 0.604702
498.0, 0.591642
504.0, 0.577313
510.0, 0.563025
516.0, 0.548247
522.0, 0.531211
528.0, 0.512793
534.0, 0.495884
540.0, 0.477737
546.0, 0.459333
552.0, 0.442103
558.0, 0.423639
564.0, 0.40543
570.0, 0.388443
576.0, 0.370212
582.0, 0.352242
588.0, 0.335381
594.0, 0.318447
600.0, 0.301673
606.0, 0.286663
612.0, 0.270887
618.0, 0.256841
624.0, 0.243495
630.0, 0.230093
636.0, 0.218189
642.0, 0.20609
648.0, 0.195778
654.0, 0.185495
660.0, 0.174767
666.0, 0.165295
672.0, 0.157204
678.0, 0.148082
684.0, 0.141082
690.0, 0.133415
696.0, 0.126296
702.0, 0.120564
708.0, 0.114814
714.0, 0.108136
720.0, 0.103541
726.0, 0.0979783
732.0, 0.0941395
738.0, 0.0885943
744.0, 0.0835765
750.0, 0.0795395
756.0, 0.077489
762.0, 0.0721377
768.0, 0.0686947
774.0, 0.0647803
780.0, 0.0620166
786.0, 0.0583481
792.0, 0.0558739
798.0, 0.0525075
804.0, 0.0495775
810.0, 0.046517
816.0, 0.0442221
822.0, 0.041942
828.0, 0.0394262
834.0, 0.0368335
840.0, 0.0359855
846.0, 0.0336739
852.0, 0.0322897
858.0, 0.0306653
864.0, 0.0297206
870.0, 0.0282025
876.0, 0.0273017
882.0, 0.0255382
888.0, 0.0247329
894.0, 0.0237985
900.0, 0.0223777
906.0, 0.0219128
912.0, 0.020789
918.0, 0.020264
924.0, 0.0194864
930.0, 0.0187794
936.0, 0.0182431
942.0, 0.0168195
948.0, 0.0168129
954.0, 0.0159541
960.0, 0.0154555
966.0, 0.0143251
972.0, 0.0141437
978.0, 0.0131705
984.0, 0.0126564
990.0, 0.0122422
996.0, 0.0116688
1002.0, 0.0109779
1008.0, 0.0106359
1014.0, 0.0103311
1020.0, 0.00964854
1026.0, 0.00909833
1032.0, 0.00826219
1038.0, 0.00768156
1044.0, 0.00675915
1050.0, 0.0060026
1056.0, 0.00553956
1062.0, 0.00440144
1068.0, 0.00354834
1074.0, 0.00314386
1080.0, 0.00365963
1086.0, 0.00341616
1092.0, 0.00281515
1098.0, 0.00394912
1104.0, 0.00131968
1110.0, 0.000917558
1116.0, 0.000693813
1122.0, 0.000882945
1128.0, 0.00166713
1134.0, 0.00198794
1140.0, 0.00237452
1146.0, 0.00265764
1152.0, 0.00415713
1158.0, 0.00422746
1164.0, 0.00557828
1170.0, 0.00635997
1176.0, 0.00763397
1182.0, 0.00830737
1188.0, 0.00895718
1194.0, 0.0103353
1200.0, 0.0110073
1206.0, 0.012016
1212.0, 0.0127648
1218.0, 0.0142561
1224.0, 0.0151877
1230.0, 0.0154314
1236.0, 0.0165654
1242.0, 0.0164893
1248.0, 0.0172792
1254.0, 0.017674
1260.0, 0.0189224
1266.0, 0.0203075
1272.0, 0.0205193
1278.0, 0.0215331
1284.0, 0.0226427
1290, 0.0
1296, 0.0
1302, 0.0
1308, 0.0
1314, 0.0
1320, 0.0
1326, 0.0
1332, 0.0
1338, 0.0
1344, 0.0
1350, 0.0
1356, 0.0
1362, 0.0
1368, 0.0
1374, 0.0
1380, 0.0
1386, 0.0
1392, 0.0
1398, 0.0
1404, 0.0
1410, 0.0
1416, 0.0
1422, 0.0
1428, 0.0
1434, 0.0
1440, 0.0
1446, 0.0
1452, 0.0
1458, 0.0
1464, 0.0
1470, 0.0
1476, 0.0
1482, 0.0
1488, 0.0
1494, 0.0
1500, 0.0
1506, 0.0
1512, 0.0
1518, 0.0
1524, 0.0
1530, 0.0
1536, 0.0
1542, 0.0
1548, 0.0
1554, 0.0
1560, 0.0
1566, 0.0
1572, 0.0
1578, 0.0
1584, 0.0
1590, 0.0
1596, 0.0
1599, 0.0