File: raw data/Dataset_2/Protoferroanthophyllite/Protoferroanthophyllite__R060053__Raman__532__0__unoriented__Raman_Data_Processed__16814.txt
30, 0.0
36, 0.0
42, 0.0
48, 0.0
54, 0.0
60, 0.0
66, 0.0
72, 0.0
78, 0.0
84, 0.0
90, 0.0
96, 0.0
102, 0.0
108, 0.0
114, 0.0
120, 0.0
126, 0.0
132.0, 0.000384157
138.0, 0.00416789
144.0, 0.0255066
150.0, 0.0357175
156.0, 0.0137648
162.0, 0.0443857
168.0, 0.11398
174.0, 0.190619
180.0, 0.157732
186.0, 0.105258
192.0, 0.0737485
198.0, 0.0657433
204.0, 0.0709021
210.0, 0.0727327
216.0, 0.0693412
222.0, 0.0544395
228.0, 0.0324494
234.0, 0.0194037
240.0, 0.0131218
246.0, 0.0111869
252.0, 0.0102373
258.0, 0.00418418
264.0, 0.0012953
270.0, 0.00157188
276.0, 0.00151257
282.0, 3.61786e-05
288.0, 0.00138758
294.0, 0.00316625
300.0, 0.00966521
306.0, 0.00948471
312.0, 0.0119694
318.0, 0.0106888
324.0, 0.0153618
330.0, 0.0342957
336.0, 0.0538049
342.0, 0.0643556
348.0, 0.0496574
354.0, 0.0559611
360.0, 0.0987684
366.0, 0.183356
372.0, 0.248046
378.0, 0.207392
384.0, 0.110547
390.0, 0.059764
396.0, 0.0434506
402.0, 0.0288424
408.0, 0.0168176
414.0, 0.0144101
420.0, 0.0125838
426.0, 0.00589645
432.0, 0.0021783
438.0, 0.00186482
444.0, 0.000326166
450.0, 9.76099e-05
456.0, 0.00110393
462.0, 0.00429297
468.0, 0.00737034
474.0, 0.00784489
480.0, 0.0110235
486.0, 0.0187849
492.0, 0.030147
498.0, 0.0467584
504.0, 0.0741906
510.0, 0.0974829
516.0, 0.105243
522.0, 0.082915
528.0, 0.0475771
534.0, 0.0287252
540.0, 0.0214871
546.0, 0.0186839
552.0, 0.0171288
558.0, 0.0138254
564.0, 0.00746353
570.0, 0.00384669
576.0, 0.000635204
582.0, 0.000540845
588.0, 0.000819592
594.0, 0.000524194
600.0, 0.00105561
606.0, 0.00187048
612.0, 0.00620089
618.0, 0.0136443
624.0, 0.0274156
630.0, 0.0462796
636.0, 0.0796759
642.0, 0.163425
648.0, 0.387896
654.0, 0.768064
660.0, 0.993072
666.0, 0.542079
672.0, 0.203482
678.0, 0.0957695
684.0, 0.0542308
690.0, 0.0309765
696.0, 0.0171552
702.0, 0.00941214
708.0, 0.00413812
714.0, 0.000613164
720.0, 0.00110146
726.0, 0.00153977
732.0, 0.0100183
738.0, 0.0235503
744.0, 0.0259037
750.0, 0.0250283
756.0, 0.0159743
762.0, 0.0108254
768.0, 0.0179636
774.0, 0.0215373
780.0, 0.0154794
786.0, 0.00553689
792.0, 0.00160892
798.0, 0.000487974
804.0, 0.000315453
810.0, 0.00144727
816.0, 0.00217634
822.0, 0.00172011
828.0, 0.00389664
834.0, 0.00367519
840.0, 0.00417754
846.0, 0.00187198
852.0, 0.00349498
858.0, 0.00169658
864.0, 0.00105617
870.0, 0.000119421
876.0, 0.000584378
882.0, 0.003405
888.0, 0.00782201
894.0, 0.0123097
900.0, 0.0192629
906.0, 0.0317518
912.0, 0.0348099
918.0, 0.0260236
924.0, 0.0123488
930.0, 0.00424338
936.0, 0.0013121
942.0, 0.00223987
948.0, 0.000802512
954.0, 0.00473819
960.0, 0.0189264
966.0, 0.0471535
972.0, 0.0649835
978.0, 0.0597805
984.0, 0.0540897
990.0, 0.0699195
996.0, 0.0873645
1002.0, 0.075129
1008.0, 0.0747414
1014.0, 0.138169
1020.0, 0.26261
1026.0, 0.325199
1032.0, 0.211403
1038.0, 0.0962732
1044.0, 0.0453022
1050.0, 0.0216499
1056.0, 0.0103817
1062.0, 0.00628284
1068.0, 0.00130595
1074.0, 0.00183796
1080.0, 0.00142112
1086.0, 0.00269528
1092.0, 0.0155393
1098.0, 0.0273556
1104.0, 0.0232481
1110.0, 0.0105093
1116.0, 0.00791345
1122.0, 0.00317398
1128.0, 0.00436331
1134.0, 0.00245404
1140.0, 0.00222332
1146.0, 0.000816326
1152.0, 0.00155016
1158.0, 0.00131164
1164.0, 0.00356945
1170.0, 0.00039329
1176.0, 0.00139864
1182.0, 0.00219048
1188.0, 0.00127666
1194.0, 0.0031318
1200.0, 0.00254357
1206.0, 0.0019599
1212.0, 0.00413814
1218.0, 0.000608757
1224.0, 0.00150549
1230.0, 0.00204638
1236.0, 0.00264348
1242.0, 0.00132022
1248.0, 0.00319231
1254.0, 0.00238616
1260.0, 0.00278333
1266.0, 0.00190526
1272.0, 0.00073349
1278.0, 0.00201746
1284.0, 0.00193946
1290.0, 0.00016368
1296.0, 0.00185392
1302.0, 0.00183764
1308.0, 0.00126074
1314.0, 0.00239654
1320, 0.0
1326, 0.0
1332, 0.0
1338, 0.0
1344, 0.0
1350, 0.0
1356, 0.0
1362, 0.0
1368, 0.0
1374, 0.0
1380, 0.0
1386, 0.0
1392, 0.0
1398, 0.0
1404, 0.0
1410, 0.0
1416, 0.0
1422, 0.0
1428, 0.0
1434, 0.0
1440, 0.0
1446, 0.0
1452, 0.0
1458, 0.0
1464, 0.0
1470, 0.0
1476, 0.0
1482, 0.0
1488, 0.0
1494, 0.0
1500, 0.0
1506, 0.0
1512, 0.0
1518, 0.0
1524, 0.0
1530, 0.0
1536, 0.0
1542, 0.0
1548, 0.0
1554, 0.0
1560, 0.0
1566, 0.0
1572, 0.0
1578, 0.0
1584, 0.0
1590, 0.0
1596, 0.0
1599, 0.0