File: raw data/Dataset_2/Protoferroanthophyllite/Protoferroanthophyllite__R060053__Raman__785__0__unoriented__Raman_Data_Processed__16818.txt
30, 0.0
36, 0.0
42, 0.0
48, 0.0
54, 0.0
60, 0.0
66, 0.0
72, 0.0
78, 0.0
84, 0.0
90, 0.0
96, 0.0
102, 0.0
108, 0.0
114, 0.0
120, 0.0
126, 0.0
132, 0.0
138.0, 0.00410366
144.0, 0.0270779
150.0, 0.124008
156.0, 0.0615942
162.0, 0.135116
168.0, 0.303991
174.0, 0.507829
180.0, 0.443905
186.0, 0.295531
192.0, 0.210689
198.0, 0.189855
204.0, 0.17963
210.0, 0.174069
216.0, 0.17753
222.0, 0.168537
228.0, 0.112904
234.0, 0.0696382
240.0, 0.04569
246.0, 0.0373788
252.0, 0.0306117
258.0, 0.0164509
264.0, 0.00785226
270.0, 0.004083
276.0, 0.00482716
282.0, 0.000862311
288.0, 0.00335109
294.0, 0.0133237
300.0, 0.023126
306.0, 0.0386362
312.0, 0.0525809
318.0, 0.0361507
324.0, 0.0319706
330.0, 0.0520684
336.0, 0.0719383
342.0, 0.0891857
348.0, 0.0779547
354.0, 0.0780125
360.0, 0.131243
366.0, 0.216792
372.0, 0.31324
378.0, 0.288963
384.0, 0.169191
390.0, 0.0995298
396.0, 0.0788064
402.0, 0.0554061
408.0, 0.0347921
414.0, 0.0301551
420.0, 0.0119628
426.0, 0.00768894
432.0, 0.00874534
438.0, 0.000404258
444.0, 0.000970328
450.0, 0.00503698
456.0, 0.00738213
462.0, 0.0206363
468.0, 0.0385422
474.0, 0.0390319
480.0, 0.0470595
486.0, 0.0459798
492.0, 0.0518369
498.0, 0.0829329
504.0, 0.125714
510.0, 0.189691
516.0, 0.248372
522.0, 0.207804
528.0, 0.125852
534.0, 0.0682552
540.0, 0.04534
546.0, 0.0308519
552.0, 0.0192184
558.0, 0.0228934
564.0, 0.00947195
570.0, 0.00673504
576.0, 0.00186217
582.0, 0.00510146
588.0, 0.00276742
594.0, 0.00110291
600.0, 0.000960023
606.0, 0.00393854
612.0, 0.0124323
618.0, 0.0177368
624.0, 0.0245273
630.0, 0.0549054
636.0, 0.0906294
642.0, 0.165522
648.0, 0.363598
654.0, 0.712775
660.0, 0.996262
666.0, 0.570023
672.0, 0.209188
678.0, 0.104829
684.0, 0.0489094
690.0, 0.0371538
696.0, 0.0217887
702.0, 0.011014
708.0, 0.00367411
714.0, 0.00235778
720.0, 0.00179476
726.0, 0.00341289
732.0, 0.013424
738.0, 0.0300605
744.0, 0.0391428
750.0, 0.0349786
756.0, 0.0217973
762.0, 0.00954949
768.0, 0.0118044
774.0, 0.0136683
780.0, 0.000803009
786.0, 0.000434168
792.0, 0.00389614
798.0, 0.00332428
804.0, 0.0027765
810.0, 0.0039252
816.0, 0.0112916
822.0, 0.0086759
828.0, 0.00567103
834.0, 0.00257439
840.0, 0.00521822
846.0, 0.00617074
852.0, 0.00594667
858.0, 0.00777321
864.0, 0.00216719
870.0, 0.00191117
876.0, 0.00278253
882.0, 0.00169293
888.0, 0.013008
894.0, 0.0183319
900.0, 0.030004
906.0, 0.0410393
912.0, 0.0423762
918.0, 0.0316441
924.0, 0.0206932
930.0, 0.0116744
936.0, 0.00793687
942.0, 0.00185099
948.0, 0.00360864
954.0, 0.00752903
960.0, 0.0135969
966.0, 0.0352016
972.0, 0.045926
978.0, 0.0428643
984.0, 0.04158
990.0, 0.0527066
996.0, 0.0829882
1002.0, 0.0764346
1008.0, 0.0694701
1014.0, 0.110171
1020.0, 0.194688
1026.0, 0.261153
1032.0, 0.172005
1038.0, 0.0760909
1044.0, 0.031679
1050.0, 0.0216207
1056.0, 0.00416016
1062.0, 0.0128013
1068.0, 0.00135228
1074.0, 0.00386548
1080.0, 0.00229071
1086.0, 0.00458744
1092.0, 0.00630996
1098.0, 0.00900349
1104.0, 0.00555093
1110.0, 0.00103369
1116.0, 0.000273085
1122.0, 0.00213287
1128.0, 0.00840109
1134.0, 0.00790759
1140.0, 0.0043559
1146.0, 0.000724791
1152.0, 0.0100736
1158.0, 0.00691002
1164.0, 0.00539433
1170.0, 0.00628404
1176.0, 0.00886321
1182.0, 0.0072503
1188.0, 0.00226348
1194.0, 0.00948385
1200.0, 0.00288788
1206.0, 0.00752352
1212.0, 0.0072933
1218.0, 0.00396886
1224.0, 0.0121219
1230.0, 0.0082532
1236.0, 0.00717912
1242.0, 0.00226726
1248, 0.0
1254, 0.0
1260, 0.0
1266, 0.0
1272, 0.0
1278, 0.0
1284, 0.0
1290, 0.0
1296, 0.0
1302, 0.0
1308, 0.0
1314, 0.0
1320, 0.0
1326, 0.0
1332, 0.0
1338, 0.0
1344, 0.0
1350, 0.0
1356, 0.0
1362, 0.0
1368, 0.0
1374, 0.0
1380, 0.0
1386, 0.0
1392, 0.0
1398, 0.0
1404, 0.0
1410, 0.0
1416, 0.0
1422, 0.0
1428, 0.0
1434, 0.0
1440, 0.0
1446, 0.0
1452, 0.0
1458, 0.0
1464, 0.0
1470, 0.0
1476, 0.0
1482, 0.0
1488, 0.0
1494, 0.0
1500, 0.0
1506, 0.0
1512, 0.0
1518, 0.0
1524, 0.0
1530, 0.0
1536, 0.0
1542, 0.0
1548, 0.0
1554, 0.0
1560, 0.0
1566, 0.0
1572, 0.0
1578, 0.0
1584, 0.0
1590, 0.0
1596, 0.0
1599, 0.0