File: raw data/Dataset_2/Protoferroanthophyllite/Protoferroanthophyllite__R060053__Raman__514__0__unoriented__Raman_Data_Processed__7882.txt
30, 0.0
36, 0.0
42, 0.0
48, 0.0
54, 0.0
60, 0.0
66, 0.0
72, 0.0
78, 0.0
84, 0.0
90.0, 0.00300844
96.0, 0.0112264
102.0, 0.00160292
108.0, 0.00135318
114.0, 0.00989877
120.0, 0.0167624
126.0, 0.0109993
132.0, 0.0243463
138.0, 0.0530026
144.0, 0.095289
150.0, 0.163071
156.0, 0.0928561
162.0, 0.0476604
168.0, 0.129542
174.0, 0.329535
180.0, 0.426612
186.0, 0.313618
192.0, 0.196205
198.0, 0.138268
204.0, 0.129658
210.0, 0.119061
216.0, 0.106978
222.0, 0.0998606
228.0, 0.076831
234.0, 0.0571869
240.0, 0.0425178
246.0, 0.0302879
252.0, 0.0267303
258.0, 0.0177355
264.0, 0.00662252
270.0, 0.00282738
276.0, 0.00422831
282.0, 0.00209972
288.0, 0.00260815
294.0, 0.00711814
300.0, 0.0131038
306.0, 0.0218647
312.0, 0.0318185
318.0, 0.0290338
324.0, 0.0198658
330.0, 0.0264218
336.0, 0.0472745
342.0, 0.0699419
348.0, 0.064936
354.0, 0.0580642
360.0, 0.0772827
366.0, 0.153977
372.0, 0.276587
378.0, 0.27527
384.0, 0.180177
390.0, 0.0994512
396.0, 0.0708003
402.0, 0.054038
408.0, 0.0321118
414.0, 0.0227394
420.0, 0.016325
426.0, 0.00653193
432.0, 0.00551288
438.0, 0.00134587
444.0, 0.00215578
450.0, 0.000739285
456.0, 0.00335238
462.0, 0.0101173
468.0, 0.00969256
474.0, 0.00619469
480.0, 0.00665044
486.0, 0.00691449
492.0, 0.0155193
498.0, 0.0237314
504.0, 0.0489027
510.0, 0.0854325
516.0, 0.148322
522.0, 0.162758
528.0, 0.091382
534.0, 0.0417288
540.0, 0.0213944
546.0, 0.0130563
552.0, 0.00970897
558.0, 0.0068027
564.0, 0.00535093
570.0, 0.0018718
576.0, 0.000616678
582.0, 0.00132259
588.0, 0.000365082
594.0, 0.00121285
600.0, 0.000832921
606.0, 0.00318239
612.0, 0.00449273
618.0, 0.0103701
624.0, 0.0213541
630.0, 0.0377288
636.0, 0.0524367
642.0, 0.0762821
648.0, 0.161154
654.0, 0.401922
660.0, 0.912024
666.0, 0.761513
672.0, 0.292253
678.0, 0.136165
684.0, 0.0837512
690.0, 0.0642213
696.0, 0.0445794
702.0, 0.031805
708.0, 0.0242223
714.0, 0.0183854
720.0, 0.0187286
726.0, 0.0188942
732.0, 0.0245305
738.0, 0.0453337
744.0, 0.0500493
750.0, 0.0353295
756.0, 0.0218758
762.0, 0.0112855
768.0, 0.0108002
774.0, 0.0109546
780.0, 0.00755545
786.0, 0.00386057
792.0, 0.00052686
798.0, 0.00164368
804.0, 0.00169575
810.0, 0.0029376
816.0, 0.00129185
822.0, 0.000324634
828.0, 0.00144515
834.0, 0.000502643
840.0, 0.00121089
846.0, 0.000435196
852.0, 0.00146441
858.0, 0.00218815
864.0, 0.000716179
870.0, 0.00301778
876.0, 0.00423553
882.0, 0.00669795
888.0, 0.0142064
894.0, 0.0225072
900.0, 0.0360446
906.0, 0.0574058
912.0, 0.087225
918.0, 0.0916611
924.0, 0.0652244
930.0, 0.04593
936.0, 0.0375652
942.0, 0.0360247
948.0, 0.0349453
954.0, 0.0376199
960.0, 0.0453389
966.0, 0.0725354
972.0, 0.117477
978.0, 0.116936
984.0, 0.1018
990.0, 0.123385
996.0, 0.173679
1002.0, 0.178329
1008.0, 0.138545
1014.0, 0.153073
1020.0, 0.248797
1026.0, 0.44881
1032.0, 0.432954
1038.0, 0.229491
1044.0, 0.123414
1050.0, 0.0792583
1056.0, 0.0589514
1062.0, 0.0437039
1068.0, 0.0346292
1074.0, 0.0281506
1080.0, 0.0298133
1086.0, 0.0390017
1092.0, 0.0308563
1098.0, 0.0346127
1104.0, 0.0323226
1110.0, 0.0199856
1116.0, 0.0145661
1122.0, 0.0248949
1128.0, 0.0140556
1134.0, 0.00710924
1140.0, 0.00606437
1146.0, 0.00482668
1152.0, 0.00172182
1158.0, 0.00256385
1164.0, 0.00227527
1170.0, 0.000154509
1176.0, 0.00171225
1182.0, 0.000854921
1188.0, 0.0019516
1194.0, 0.000647653
1200.0, 0.000983979
1206.0, 0.000866815
1212.0, 0.00307154
1218.0, 0.000402472
1224.0, 0.00285916
1230.0, 0.00158508
1236.0, 0.0013749
1242.0, 0.00373841
1248.0, 0.00238473
1254.0, 0.00248898
1260.0, 0.005031
1266.0, 0.0045791
1272.0, 0.00365927
1278.0, 0.004259
1284.0, 0.00113762
1290.0, 0.00482356
1296.0, 0.00241041
1302.0, 0.00378882
1308.0, 0.00578802
1314.0, 0.00409675
1320.0, 0.00278222
1326.0, 0.000750962
1332.0, 0.00347073
1338.0, 0.00186891
1344.0, 0.00304381
1350.0, 0.00358974
1356.0, 0.00106151
1362.0, 0.00459203
1368.0, 0.000324764
1374.0, 0.00104225
1380.0, 0.00232369
1386.0, 0.00443549
1392.0, 0.0043527
1398.0, 0.00122328
1404.0, 0.00317814
1410.0, 0.000590212
1416.0, 0.00304978
1422.0, 0.00259914
1428.0, 0.00235595
1434.0, 0.004344
1440.0, 0.00150713
1446.0, 0.00348343
1452.0, 0.00372646
1458.0, 0.00287086
1464.0, 0.00495337
1470.0, 0.00476712
1476.0, 0.00207467
1482.0, 0.00352758
1488.0, 0.00308472
1494.0, 0.00600463
1500.0, 0.00224967
1506.0, 0.00323029
1512.0, 0.00120406
1518.0, 0.00147773
1524, 0.0
1530, 0.0
1536, 0.0
1542, 0.0
1548, 0.0
1554, 0.0
1560, 0.0
1566, 0.0
1572, 0.0
1578, 0.0
1584, 0.0
1590, 0.0
1596, 0.0
1599, 0.0