File: raw data/Dataset_2/Cubiczirconia/Cubiczirconia__R040142-3__Raman__514__45__ccw__Raman_Data_Processed__2846.txt
30, 0.0
36, 0.0
42, 0.0
48, 0.0
54, 0.0
60, 0.0
66, 0.0
72, 0.0
78, 0.0
84, 0.0
90, 0.0
96, 0.0
102, 0.0
108, 0.0
114, 0.0
120, 0.0
126, 0.0
132, 0.0
138, 0.0
144, 0.0
150, 0.0
156, 0.0
162, 0.0
168, 0.0
174, 0.0
180, 0.0
186, 0.0
192, 0.0
198, 0.0
204, 0.0
210, 0.0
216, 0.0
222, 0.0
228, 0.0
234, 0.0
240.0, 0.000617052
246.0, 0.00746629
252.0, 0.0146
258.0, 0.0221171
264.0, 0.0273522
270.0, 0.0431308
276.0, 0.0686881
282.0, 0.0834517
288.0, 0.0789168
294.0, 0.0444536
300.0, 0.00811465
306.0, 0.0073703
312.0, 0.000505628
318.0, 0.0130865
324.0, 0.0264626
330.0, 0.0202757
336.0, 0.047388
342.0, 0.0902084
348.0, 0.121215
354.0, 0.127391
360.0, 0.112288
366.0, 0.11247
372.0, 0.114834
378.0, 0.11354
384.0, 0.0967194
390.0, 0.085199
396.0, 0.0645112
402.0, 0.040645
408.0, 0.0300682
414.0, 0.019531
420.0, 0.0168214
426.0, 0.00503202
432.0, 0.00694
438.0, 0.00763795
444.0, 0.00294898
450.0, 0.00341205
456.0, 0.0185372
462.0, 0.0358602
468.0, 0.0539981
474.0, 0.0815582
480.0, 0.103816
486.0, 0.1277
492.0, 0.14055
498.0, 0.157414
504.0, 0.176733
510.0, 0.197048
516.0, 0.207634
522.0, 0.236649
528.0, 0.261528
534.0, 0.291379
540.0, 0.305532
546.0, 0.335921
552.0, 0.362553
558.0, 0.380535
564.0, 0.417872
570.0, 0.450345
576.0, 0.490515
582.0, 0.536934
588.0, 0.594538
594.0, 0.667388
600.0, 0.760344
606.0, 0.874271
612.0, 0.957274
618.0, 0.996051
624.0, 0.957281
630.0, 0.813226
636.0, 0.602728
642.0, 0.401817
648.0, 0.279662
654.0, 0.226989
660.0, 0.191334
666.0, 0.176127
672.0, 0.170469
678.0, 0.168756
684.0, 0.168118
690.0, 0.160594
696.0, 0.150676
702.0, 0.143515
708.0, 0.123392
714.0, 0.10085
720.0, 0.0879921
726.0, 0.0730761
732.0, 0.0569587
738.0, 0.0393781
744.0, 0.0274622
750.0, 0.0193881
756.0, 0.0102337
762.0, 0.00474728
768.0, 0.00348792
774.0, 0.0069257
780.0, 0.00827621
786.0, 0.0119215
792.0, 0.00842354
798.0, 0.00721278
804.0, 0.00558231
810.0, 0.0102346
816.0, 0.00340949
822.0, 0.00376133
828.0, 0.00126795
834.0, 0.00578772
840.0, 0.0106696
846.0, 0.0131356
852.0, 0.01298
858.0, 0.015166
864.0, 0.0146886
870.0, 0.0143804
876.0, 0.0188036
882.0, 0.019824
888.0, 0.0230685
894.0, 0.0270981
900.0, 0.0329515
906.0, 0.0416306
912.0, 0.0413047
918.0, 0.0511922
924.0, 0.0599468
930.0, 0.0792122
936.0, 0.117179
942.0, 0.20587
948.0, 0.328492
954.0, 0.435426
960.0, 0.439084
966.0, 0.333792
972.0, 0.205581
978.0, 0.115235
984.0, 0.0832572
990.0, 0.111547
996.0, 0.182019
1002.0, 0.274236
1008.0, 0.362784
1014.0, 0.434076
1020.0, 0.469561
1026.0, 0.441908
1032.0, 0.402291
1038.0, 0.367654
1044.0, 0.315837
1050.0, 0.285639
1056.0, 0.314342
1062.0, 0.369062
1068.0, 0.401679
1074.0, 0.416775
1080.0, 0.418967
1086.0, 0.410036
1092.0, 0.409622
1098.0, 0.376934
1104.0, 0.348224
1110.0, 0.317876
1116.0, 0.264256
1122.0, 0.229686
1128.0, 0.181643
1134.0, 0.146685
1140.0, 0.125623
1146.0, 0.116113
1152.0, 0.103912
1158.0, 0.099665
1164.0, 0.0973961
1170.0, 0.0929969
1176.0, 0.103871
1182.0, 0.105075
1188.0, 0.110156
1194.0, 0.11181
1200.0, 0.107974
1206.0, 0.104892
1212.0, 0.103873
1218.0, 0.0949179
1224.0, 0.0879151
1230.0, 0.069238
1236.0, 0.051741
1242.0, 0.0404206
1248.0, 0.0310839
1254.0, 0.018651
1260.0, 0.013008
1266.0, 0.0046331
1272.0, 0.00104585
1278.0, 0.00440482
1284.0, 0.00767347
1290.0, 0.00413136
1296.0, 0.00259506
1302.0, 0.00942264
1308.0, 0.00884987
1314.0, 0.00608365
1320.0, 0.00732041
1326.0, 0.00490021
1332.0, 0.000598291
1338.0, 0.00252681
1344.0, 0.00382256
1350.0, 0.00347063
1356.0, 0.00798235
1362.0, 0.0116155
1368.0, 0.0149747
1374.0, 0.0134858
1380.0, 0.00941671
1386.0, 0.0119567
1392.0, 0.0185574
1398.0, 0.0193716
1404.0, 0.0267723
1410.0, 0.0297031
1416.0, 0.0260267
1422.0, 0.0261282
1428.0, 0.026906
1434.0, 0.0285416
1440.0, 0.0314462
1446.0, 0.0351583
1452.0, 0.0351285
1458.0, 0.0366196
1464.0, 0.0332798
1470.0, 0.0353334
1476.0, 0.0431766
1482.0, 0.043613
1488.0, 0.0297616
1494.0, 0.0183941
1500.0, 0.0170632
1506.0, 0.0185601
1512.0, 0.0164093
1518.0, 0.0189807
1524.0, 0.0127925
1530.0, 0.00881507
1536, 0.0
1542, 0.0
1548, 0.0
1554, 0.0
1560, 0.0
1566, 0.0
1572, 0.0
1578, 0.0
1584, 0.0
1590, 0.0
1596, 0.0
1599, 0.0