File: raw data/Dataset_2/Cubiczirconia/Cubiczirconia__R040142-3__Raman__514__0__ccw__Raman_Data_Processed__2844.txt
30, 0.0
36, 0.0
42, 0.0
48, 0.0
54, 0.0
60, 0.0
66, 0.0
72, 0.0
78, 0.0
84, 0.0
90, 0.0
96, 0.0
102, 0.0
108, 0.0
114, 0.0
120, 0.0
126, 0.0
132, 0.0
138, 0.0
144, 0.0
150, 0.0
156, 0.0
162, 0.0
168, 0.0
174, 0.0
180, 0.0
186, 0.0
192, 0.0
198, 0.0
204, 0.0
210, 0.0
216, 0.0
222, 0.0
228, 0.0
234, 0.0
240, 0.0
246, 0.0
252, 0.0
258, 0.0
264, 0.0
270, 0.0
276, 0.0
282, 0.0
288, 0.0
294, 0.0
300, 0.0
306, 0.0
312, 0.0
318, 0.0
324, 0.0
330.0, 0.000314423
336.0, 0.0137581
342.0, 0.0410158
348.0, 0.0841795
354.0, 0.0883684
360.0, 0.0541196
366.0, 0.0716894
372.0, 0.113256
378.0, 0.140582
384.0, 0.138515
390.0, 0.153347
396.0, 0.16184
402.0, 0.134642
408.0, 0.125474
414.0, 0.112725
420.0, 0.0956141
426.0, 0.0775162
432.0, 0.0386475
438.0, 0.0230563
444.0, 0.0136197
450.0, 0.00305465
456.0, 0.00873196
462.0, 0.0107075
468.0, 0.00617744
474.0, 0.00339079
480.0, 0.0126952
486.0, 0.0278074
492.0, 0.0277124
498.0, 0.0406457
504.0, 0.0543069
510.0, 0.0646806
516.0, 0.0831342
522.0, 0.105763
528.0, 0.128778
534.0, 0.153152
540.0, 0.172084
546.0, 0.20242
552.0, 0.217356
558.0, 0.249803
564.0, 0.292847
570.0, 0.330568
576.0, 0.36308
582.0, 0.395209
588.0, 0.447428
594.0, 0.495817
600.0, 0.545745
606.0, 0.615346
612.0, 0.663629
618.0, 0.702813
624.0, 0.686213
630.0, 0.635329
636.0, 0.545975
642.0, 0.41859
648.0, 0.321501
654.0, 0.27802
660.0, 0.245569
666.0, 0.237836
672.0, 0.242221
678.0, 0.246415
684.0, 0.252547
690.0, 0.243553
696.0, 0.242711
702.0, 0.242238
708.0, 0.21477
714.0, 0.188534
720.0, 0.179624
726.0, 0.149047
732.0, 0.127458
738.0, 0.0973383
744.0, 0.083392
750.0, 0.0591391
756.0, 0.0490465
762.0, 0.0355515
768.0, 0.0157962
774.0, 0.00894629
780.0, 0.00268794
786.0, 0.00421664
792.0, 0.00562167
798.0, 0.00711589
804.0, 0.0110491
810.0, 0.0107364
816.0, 0.0095406
822.0, 0.0159187
828.0, 0.00305346
834.0, 0.0086039
840.0, 0.01109
846.0, 0.0130583
852.0, 0.00989665
858.0, 0.00909458
864.0, 0.00280056
870.0, 0.00500364
876.0, 0.0111942
882.0, 0.023448
888.0, 0.01964
894.0, 0.0259689
900.0, 0.0373015
906.0, 0.0548629
912.0, 0.0637119
918.0, 0.0832779
924.0, 0.112648
930.0, 0.152733
936.0, 0.236298
942.0, 0.428862
948.0, 0.693023
954.0, 0.925749
960.0, 0.913827
966.0, 0.696285
972.0, 0.42781
978.0, 0.23869
984.0, 0.17523
990.0, 0.231701
996.0, 0.385281
1002.0, 0.573886
1008.0, 0.753066
1014.0, 0.897304
1020.0, 0.983451
1026.0, 0.9143
1032.0, 0.833337
1038.0, 0.775792
1044.0, 0.655857
1050.0, 0.59593
1056.0, 0.660651
1062.0, 0.763127
1068.0, 0.835768
1074.0, 0.8794
1080.0, 0.871489
1086.0, 0.855325
1092.0, 0.83929
1098.0, 0.793302
1104.0, 0.725969
1110.0, 0.664835
1116.0, 0.561096
1122.0, 0.493767
1128.0, 0.387729
1134.0, 0.316511
1140.0, 0.273248
1146.0, 0.255735
1152.0, 0.224707
1158.0, 0.205931
1164.0, 0.209768
1170.0, 0.207001
1176.0, 0.226128
1182.0, 0.230642
1188.0, 0.236556
1194.0, 0.236718
1200.0, 0.234201
1206.0, 0.231874
1212.0, 0.220264
1218.0, 0.210239
1224.0, 0.185444
1230.0, 0.150696
1236.0, 0.117233
1242.0, 0.0891264
1248.0, 0.066774
1254.0, 0.0442483
1260.0, 0.0314493
1266.0, 0.0166322
1272.0, 0.00701499
1278.0, 0.00605159
1284.0, 0.00878815
1290.0, 0.00909507
1296.0, 0.00613175
1302.0, 0.0142136
1308.0, 0.0120118
1314.0, 0.0164271
1320.0, 0.019948
1326.0, 0.00735967
1332.0, 0.00701373
1338.0, 0.00326495
1344.0, 0.0090637
1350.0, 0.00668294
1356.0, 0.0190197
1362.0, 0.0260324
1368.0, 0.0393708
1374.0, 0.0413107
1380.0, 0.0270672
1386.0, 0.0296268
1392.0, 0.032905
1398.0, 0.0464091
1404.0, 0.0615457
1410.0, 0.0647349
1416.0, 0.059359
1422.0, 0.0608482
1428.0, 0.0508268
1434.0, 0.0656206
1440.0, 0.0667571
1446.0, 0.0781653
1452.0, 0.0732739
1458.0, 0.0720326
1464.0, 0.0759793
1470.0, 0.0787407
1476.0, 0.102473
1482.0, 0.0819678
1488.0, 0.0581749
1494.0, 0.0428582
1500.0, 0.0425339
1506.0, 0.0398185
1512.0, 0.0395762
1518.0, 0.0359892
1524.0, 0.0311843
1530.0, 0.0156222
1536, 0.0
1542, 0.0
1548, 0.0
1554, 0.0
1560, 0.0
1566, 0.0
1572, 0.0
1578, 0.0
1584, 0.0
1590, 0.0
1596, 0.0
1599, 0.0