File: raw data/Dataset_2/Cubiczirconia/Cubiczirconia__R040142-3__Raman__514__90__ccw__Raman_Data_Processed__2848.txt
30, 0.0
36, 0.0
42, 0.0
48, 0.0
54, 0.0
60, 0.0
66, 0.0
72, 0.0
78, 0.0
84, 0.0
90, 0.0
96, 0.0
102, 0.0
108, 0.0
114, 0.0
120, 0.0
126, 0.0
132, 0.0
138, 0.0
144, 0.0
150, 0.0
156, 0.0
162, 0.0
168, 0.0
174, 0.0
180, 0.0
186, 0.0
192, 0.0
198, 0.0
204, 0.0
210, 0.0
216, 0.0
222, 0.0
228, 0.0
234, 0.0
240, 0.0
246, 0.0
252, 0.0
258, 0.0
264, 0.0
270, 0.0
276, 0.0
282, 0.0
288, 0.0
294, 0.0
300, 0.0
306, 0.0
312, 0.0
318, 0.0
324.0, 0.0227865
330.0, 0.00294685
336.0, 0.0216226
342.0, 0.0593502
348.0, 0.105606
354.0, 0.102294
360.0, 0.0668073
366.0, 0.08778
372.0, 0.12119
378.0, 0.15516
384.0, 0.154494
390.0, 0.17033
396.0, 0.174978
402.0, 0.151708
408.0, 0.128839
414.0, 0.10433
420.0, 0.0938455
426.0, 0.0688893
432.0, 0.0382664
438.0, 0.0277484
444.0, 0.0104131
450.0, 0.00421477
456.0, 0.00209011
462.0, 0.00215243
468.0, 0.00385917
474.0, 0.0128925
480.0, 0.0134807
486.0, 0.0253144
492.0, 0.0677648
498.0, 0.0464317
504.0, 0.0668483
510.0, 0.0830485
516.0, 0.0875188
522.0, 0.115343
528.0, 0.134938
534.0, 0.161481
540.0, 0.189339
546.0, 0.201257
552.0, 0.223417
558.0, 0.254856
564.0, 0.292531
570.0, 0.325711
576.0, 0.361489
582.0, 0.395556
588.0, 0.450028
594.0, 0.492386
600.0, 0.546425
606.0, 0.613032
612.0, 0.656721
618.0, 0.689914
624.0, 0.686427
630.0, 0.632487
636.0, 0.535205
642.0, 0.412516
648.0, 0.318092
654.0, 0.275038
660.0, 0.244449
666.0, 0.238144
672.0, 0.23256
678.0, 0.246659
684.0, 0.247326
690.0, 0.24327
696.0, 0.23914
702.0, 0.234314
708.0, 0.212547
714.0, 0.18417
720.0, 0.173596
726.0, 0.14494
732.0, 0.123202
738.0, 0.0993577
744.0, 0.080257
750.0, 0.0621808
756.0, 0.0490673
762.0, 0.0350895
768.0, 0.0157849
774.0, 0.00550179
780.0, 0.00160019
786.0, 0.00356511
792.0, 0.00470591
798.0, 0.0117928
804.0, 0.0121373
810.0, 0.0134167
816.0, 0.0101019
822.0, 0.0114791
828.0, 0.00542822
834.0, 0.00582039
840.0, 0.00308559
846.0, 0.00370449
852.0, 0.00646374
858.0, 0.00544153
864.0, 0.0144021
870.0, 0.00400595
876.0, 0.00718494
882.0, 0.0160747
888.0, 0.0212945
894.0, 0.0279381
900.0, 0.0366185
906.0, 0.0515384
912.0, 0.0578268
918.0, 0.079431
924.0, 0.0981485
930.0, 0.148488
936.0, 0.238352
942.0, 0.431883
948.0, 0.695822
954.0, 0.913134
960.0, 0.916079
966.0, 0.692191
972.0, 0.423732
978.0, 0.238438
984.0, 0.182504
990.0, 0.239118
996.0, 0.382324
1002.0, 0.575886
1008.0, 0.764753
1014.0, 0.919144
1020.0, 0.982644
1026.0, 0.915352
1032.0, 0.833428
1038.0, 0.760844
1044.0, 0.660296
1050.0, 0.600824
1056.0, 0.663579
1062.0, 0.768381
1068.0, 0.85043
1074.0, 0.877812
1080.0, 0.871927
1086.0, 0.858217
1092.0, 0.845065
1098.0, 0.792714
1104.0, 0.730812
1110.0, 0.665109
1116.0, 0.562065
1122.0, 0.488703
1128.0, 0.385149
1134.0, 0.319227
1140.0, 0.278049
1146.0, 0.266057
1152.0, 0.231295
1158.0, 0.215851
1164.0, 0.208947
1170.0, 0.206855
1176.0, 0.225566
1182.0, 0.226896
1188.0, 0.229962
1194.0, 0.236036
1200.0, 0.22987
1206.0, 0.226368
1212.0, 0.219255
1218.0, 0.198193
1224.0, 0.179618
1230.0, 0.147285
1236.0, 0.109621
1242.0, 0.0842549
1248.0, 0.0659517
1254.0, 0.0421119
1260.0, 0.0289565
1266.0, 0.0137592
1272.0, 0.00390334
1278.0, 0.00876745
1284.0, 0.0100483
1290.0, 0.00595691
1296.0, 0.0122486
1302.0, 0.0154032
1308.0, 0.0078345
1314.0, 0.012435
1320.0, 0.0172489
1326.0, 0.00195087
1332.0, 0.00864357
1338.0, 0.0044634
1344.0, 0.00447077
1350.0, 0.00606743
1356.0, 0.0176207
1362.0, 0.0185523
1368.0, 0.0248442
1374.0, 0.0263675
1380.0, 0.0151409
1386.0, 0.0186928
1392.0, 0.0282347
1398.0, 0.0392235
1404.0, 0.0548345
1410.0, 0.061519
1416.0, 0.0543256
1422.0, 0.0573083
1428.0, 0.0551256
1434.0, 0.061264
1440.0, 0.0572842
1446.0, 0.0682145
1452.0, 0.0636525
1458.0, 0.0692009
1464.0, 0.064966
1470.0, 0.065312
1476.0, 0.0847055
1482.0, 0.0664946
1488.0, 0.0524045
1494.0, 0.0416515
1500.0, 0.035201
1506.0, 0.0313895
1512.0, 0.0244082
1518.0, 0.034477
1524.0, 0.0256897
1530.0, 0.0156576
1536, 0.0
1542, 0.0
1548, 0.0
1554, 0.0
1560, 0.0
1566, 0.0
1572, 0.0
1578, 0.0
1584, 0.0
1590, 0.0
1596, 0.0
1599, 0.0