File: raw data/Dataset_2/Cubiczirconia/Cubiczirconia__X080012__Raman__532__0__unoriented__Raman_Data_Processed__31411.txt
30, 0.0
36, 0.0
42, 0.0
48, 0.0
54, 0.0
60, 0.0
66, 0.0
72, 0.0
78, 0.0
84, 0.0
90, 0.0
96, 0.0
102, 0.0
108, 0.0
114, 0.0
120, 0.0
126, 0.0
132, 0.0
138, 0.0
144, 0.0
150, 0.0
156, 0.0
162.0, 0.0180443
168.0, 0.0166052
174.0, 0.0119914
180.0, 0.0160905
186.0, 0.0438978
192.0, 0.0167726
198.0, 0.00477307
204.0, 0.00592403
210.0, 0.00730638
216.0, 0.00416396
222.0, 0.0363159
228.0, 0.0537337
234.0, 0.0770934
240.0, 0.0999939
246.0, 0.105922
252.0, 0.121346
258.0, 0.135709
264.0, 0.12639
270.0, 0.122626
276.0, 0.117224
282.0, 0.121132
288.0, 0.117555
294.0, 0.13062
300.0, 0.137992
306.0, 0.163605
312.0, 0.189056
318.0, 0.184556
324.0, 0.134698
330.0, 0.0708001
336.0, 0.0260826
342.0, 0.00620818
348.0, 0.000855087
354.0, 0.0240985
360.0, 0.0469011
366.0, 0.0702603
372.0, 0.0907759
378.0, 0.102598
384.0, 0.0936415
390.0, 0.074316
396.0, 0.0638986
402.0, 0.0472253
408.0, 0.0359196
414.0, 0.0399205
420.0, 0.0394311
426.0, 0.0429813
432.0, 0.036238
438.0, 0.0198692
444.0, 0.00687472
450.0, 0.00680992
456.0, 0.0148807
462.0, 0.00138191
468.0, 0.00748758
474.0, 0.0122402
480.0, 0.010195
486.0, 0.00367241
492.0, 0.00763832
498.0, 0.00896767
504.0, 0.0185157
510.0, 0.0271365
516.0, 0.0268372
522.0, 0.0513177
528.0, 0.086607
534.0, 0.128379
540.0, 0.176045
546.0, 0.217777
552.0, 0.257818
558.0, 0.300677
564.0, 0.348252
570.0, 0.403901
576.0, 0.471032
582.0, 0.553709
588.0, 0.648663
594.0, 0.740517
600.0, 0.850641
606.0, 0.952166
612.0, 0.999367
618.0, 0.931062
624.0, 0.765816
630.0, 0.526858
636.0, 0.283439
642.0, 0.113896
648.0, 0.0153966
654.0, 0.0162334
660.0, 0.0180348
666.0, 0.00625748
672.0, 0.0166854
678.0, 0.0368913
684.0, 0.0588061
690.0, 0.0765586
696.0, 0.0863701
702.0, 0.0910547
708.0, 0.0951307
714.0, 0.0808668
720.0, 0.0553497
726.0, 0.0318262
732.0, 0.0243768
738.0, 0.0156915
744.0, 0.0130311
750.0, 0.00822889
756.0, 0.00490849
762.0, 0.00367624
768.0, 0.0015672
774.0, 0.00331383
780.0, 0.00989908
786.0, 0.00332387
792.0, 0.00766688
798.0, 0.00464003
804.0, 0.00391369
810.0, 0.00319553
816.0, 0.00171398
822.0, 5.44235e-05
828.0, 0.00262954
834.0, 0.00130903
840.0, 0.00128911
846.0, 0.00213881
852.0, 0.00175387
858.0, 0.00131162
864.0, 0.00102325
870.0, 0.00339198
876.0, 0.000865373
882.0, 0.00214242
888.0, 0.00273907
894.0, 0.000434884
900.0, 0.00113509
906.0, 0.000692708
912.0, 0.00211282
918.0, 0.000362157
924.0, 0.00402591
930.0, 0.00950124
936.0, 0.00610923
942.0, 0.00721554
948.0, 0.0116866
954.0, 0.0167939
960.0, 0.0201052
966.0, 0.022982
972.0, 0.0216597
978.0, 0.0257039
984.0, 0.027992
990.0, 0.0261616
996.0, 0.0211761
1002.0, 0.0192328
1008.0, 0.0178406
1014.0, 0.0123919
1020.0, 0.0135349
1026.0, 0.00696082
1032.0, 0.0083016
1038.0, 0.006224
1044.0, 0.00457018
1050.0, 0.00195687
1056.0, 0.00242463
1062.0, 0.000247982
1068.0, 0.000666525
1074.0, 0.000649307
1080.0, 0.000319049
1086.0, 0.000262115
1092.0, 0.00143549
1098.0, 0.001731
1104.0, 0.000425429
1110.0, 0.000615372
1116.0, 0.000270701
1122.0, 0.00135167
1128.0, 0.00220861
1134.0, 0.00338253
1140.0, 0.00173098
1146.0, 0.00394711
1152.0, 0.00325367
1158.0, 0.0045587
1164.0, 0.00431619
1170.0, 0.00297412
1176.0, 0.0043071
1182.0, 0.0040914
1188.0, 0.00399499
1194.0, 0.00370261
1200.0, 0.00432071
1206.0, 0.00389338
1212.0, 0.00275834
1218.0, 0.00273097
1224.0, 0.00375912
1230.0, 0.00190367
1236.0, 0.00163934
1242.0, 0.00139468
1248.0, 0.00223679
1254.0, 0.00115568
1260.0, 0.00056241
1266.0, 0.0014818
1272.0, 0.000521765
1278.0, 0.0017692
1284.0, 0.000983914
1290.0, 0.00113318
1296.0, 0.000313686
1302.0, 0.000218305
1308, 0.0
1314, 0.0
1320, 0.0
1326, 0.0
1332, 0.0
1338, 0.0
1344, 0.0
1350, 0.0
1356, 0.0
1362, 0.0
1368, 0.0
1374, 0.0
1380, 0.0
1386, 0.0
1392, 0.0
1398, 0.0
1404, 0.0
1410, 0.0
1416, 0.0
1422, 0.0
1428, 0.0
1434, 0.0
1440, 0.0
1446, 0.0
1452, 0.0
1458, 0.0
1464, 0.0
1470, 0.0
1476, 0.0
1482, 0.0
1488, 0.0
1494, 0.0
1500, 0.0
1506, 0.0
1512, 0.0
1518, 0.0
1524, 0.0
1530, 0.0
1536, 0.0
1542, 0.0
1548, 0.0
1554, 0.0
1560, 0.0
1566, 0.0
1572, 0.0
1578, 0.0
1584, 0.0
1590, 0.0
1596, 0.0
1599, 0.0