File: raw data/Dataset_2/GlassDy/GlassDy__R110082__Raman__780__0__unoriented__Raman_Data_Processed__35502.txt
30, 0.0
36, 0.0
42, 0.0
48, 0.0
54, 0.0
60, 0.0
66, 0.0
72, 0.0
78, 0.0
84, 0.0
90, 0.0
96.0, 0.993863
102.0, 0.947268
108.0, 0.932597
114.0, 0.921178
120.0, 0.906052
126.0, 0.894319
132.0, 0.878399
138.0, 0.870655
144.0, 0.852517
150.0, 0.83955
156.0, 0.829491
162.0, 0.825252
168.0, 0.813365
174.0, 0.802844
180.0, 0.797573
186.0, 0.78669
192.0, 0.780511
198.0, 0.7757
204.0, 0.767737
210.0, 0.765038
216.0, 0.768702
222.0, 0.762129
228.0, 0.756891
234.0, 0.756707
240.0, 0.760014
246.0, 0.755841
252.0, 0.753107
258.0, 0.748043
264.0, 0.750944
270.0, 0.753565
276.0, 0.753893
282.0, 0.754099
288.0, 0.751758
294.0, 0.75042
300.0, 0.757863
306.0, 0.753551
312.0, 0.751241
318.0, 0.759117
324.0, 0.753847
330.0, 0.758151
336.0, 0.75851
342.0, 0.759855
348.0, 0.762184
354.0, 0.760922
360.0, 0.757447
366.0, 0.754596
372.0, 0.757195
378.0, 0.750306
384.0, 0.748208
390.0, 0.742038
396.0, 0.738351
402.0, 0.733496
408.0, 0.73538
414.0, 0.731981
420.0, 0.727875
426.0, 0.731109
432.0, 0.726229
438.0, 0.724721
444.0, 0.725103
450.0, 0.722538
456.0, 0.723124
462.0, 0.721926
468.0, 0.71942
474.0, 0.712483
480.0, 0.706645
486.0, 0.702758
492.0, 0.699343
498.0, 0.696297
504.0, 0.689877
510.0, 0.686389
516.0, 0.674937
522.0, 0.66321
528.0, 0.652094
534.0, 0.637762
540.0, 0.628729
546.0, 0.61595
552.0, 0.604781
558.0, 0.596801
564.0, 0.589018
570.0, 0.578063
576.0, 0.572296
582.0, 0.557443
588.0, 0.547477
594.0, 0.531076
600.0, 0.516179
606.0, 0.500505
612.0, 0.490663
618.0, 0.481631
624.0, 0.472739
630.0, 0.46683
636.0, 0.460946
642.0, 0.454845
648.0, 0.444013
654.0, 0.433808
660.0, 0.428558
666.0, 0.415003
672.0, 0.405963
678.0, 0.39419
684.0, 0.382082
690.0, 0.367393
696.0, 0.356416
702.0, 0.346199
708.0, 0.335155
714.0, 0.326752
720.0, 0.318612
726.0, 0.311963
732.0, 0.304674
738.0, 0.296902
744.0, 0.289579
750.0, 0.281118
756.0, 0.278073
762.0, 0.271705
768.0, 0.266922
774.0, 0.259641
780.0, 0.253019
786.0, 0.245459
792.0, 0.237195
798.0, 0.232454
804.0, 0.22404
810.0, 0.217763
816.0, 0.211223
822.0, 0.207497
828.0, 0.206056
834.0, 0.205546
840.0, 0.210292
846.0, 0.215443
852.0, 0.223272
858.0, 0.233349
864.0, 0.240358
870.0, 0.25028
876.0, 0.258862
882.0, 0.269551
888.0, 0.276209
894.0, 0.284758
900.0, 0.293422
906.0, 0.303006
912.0, 0.313136
918.0, 0.318426
924.0, 0.323988
930.0, 0.331013
936.0, 0.334332
942.0, 0.337397
948.0, 0.342658
954.0, 0.341247
960.0, 0.348079
966.0, 0.344532
972.0, 0.349941
978.0, 0.349409
984.0, 0.348817
990.0, 0.345505
996.0, 0.346711
1002.0, 0.342723
1008.0, 0.337858
1014.0, 0.333825
1020.0, 0.32275
1026.0, 0.32028
1032.0, 0.306515
1038.0, 0.294909
1044.0, 0.284966
1050.0, 0.269164
1056.0, 0.251774
1062.0, 0.234649
1068.0, 0.216327
1074.0, 0.200555
1080.0, 0.181871
1086.0, 0.167095
1092.0, 0.150491
1098.0, 0.137037
1104.0, 0.124109
1110.0, 0.110906
1116.0, 0.0993403
1122.0, 0.0886756
1128.0, 0.0794004
1134.0, 0.0735002
1140.0, 0.0671031
1146.0, 0.0575154
1152.0, 0.0541462
1158.0, 0.0489146
1164.0, 0.0430024
1170.0, 0.0406741
1176.0, 0.0347158
1182.0, 0.0296949
1188.0, 0.0266135
1194.0, 0.0244321
1200.0, 0.0224467
1206.0, 0.017578
1212.0, 0.0188726
1218.0, 0.0134179
1224.0, 0.0111546
1230.0, 0.0117751
1236.0, 0.00970029
1242.0, 0.00649353
1248.0, 0.00498682
1254.0, 0.00484631
1260.0, 0.00617032
1266.0, 0.00451514
1272.0, 0.00438575
1278.0, 0.00194167
1284.0, 0.00348716
1290, 0.0
1296, 0.0
1302, 0.0
1308, 0.0
1314, 0.0
1320, 0.0
1326, 0.0
1332, 0.0
1338, 0.0
1344, 0.0
1350, 0.0
1356, 0.0
1362, 0.0
1368, 0.0
1374, 0.0
1380, 0.0
1386, 0.0
1392, 0.0
1398, 0.0
1404, 0.0
1410, 0.0
1416, 0.0
1422, 0.0
1428, 0.0
1434, 0.0
1440, 0.0
1446, 0.0
1452, 0.0
1458, 0.0
1464, 0.0
1470, 0.0
1476, 0.0
1482, 0.0
1488, 0.0
1494, 0.0
1500, 0.0
1506, 0.0
1512, 0.0
1518, 0.0
1524, 0.0
1530, 0.0
1536, 0.0
1542, 0.0
1548, 0.0
1554, 0.0
1560, 0.0
1566, 0.0
1572, 0.0
1578, 0.0
1584, 0.0
1590, 0.0
1596, 0.0
1599, 0.0