File: raw data/Dataset_2/Ferroericssonite/Ferroericssonite__R070406__Raman__785__0__unoriented__Raman_Data_Processed__21619.txt
30, 0.0
36, 0.0
42, 0.0
48, 0.0
54, 0.0
60, 0.0
66, 0.0
72, 0.0
78, 0.0
84, 0.0
90, 0.0
96, 0.0
102, 0.0
108, 0.0
114, 0.0
120, 0.0
126, 0.0
132, 0.0
138, 0.0
144, 0.0
150, 0.0
156, 0.0
162.0, 0.0241648
168.0, 0.00334708
174.0, 0.030526
180.0, 0.0578867
186.0, 0.119807
192.0, 0.182173
198.0, 0.181974
204.0, 0.181309
210.0, 0.13326
216.0, 0.102718
222.0, 0.0821361
228.0, 0.0760635
234.0, 0.101917
240.0, 0.0980698
246.0, 0.0564201
252.0, 0.0374001
258.0, 0.0212573
264.0, 0.0237098
270.0, 0.00158531
276.0, 0.00723552
282.0, 0.00877348
288.0, 0.0273697
294.0, 0.0405735
300.0, 0.0568742
306.0, 0.0550585
312.0, 0.0468586
318.0, 0.0221691
324.0, 0.0119594
330.0, 0.000972864
336.0, 0.000811565
342.0, 0.00061938
348.0, 0.0269084
354.0, 0.0680335
360.0, 0.0627524
366.0, 0.0733954
372.0, 0.101888
378.0, 0.147779
384.0, 0.206967
390.0, 0.280223
396.0, 0.22756
402.0, 0.103853
408.0, 0.0364311
414.0, 0.0207496
420.0, 0.020448
426.0, 0.0194246
432.0, 0.00330604
438.0, 0.00144324
444.0, 0.0314192
450.0, 0.131259
456.0, 0.308217
462.0, 0.690069
468.0, 0.531111
474.0, 0.251143
480.0, 0.13469
486.0, 0.066562
492.0, 0.0351746
498.0, 0.0206358
504.0, 0.0133228
510.0, 0.00795606
516.0, 0.00773819
522.0, 0.00512365
528.0, 0.00236282
534.0, 0.00431897
540.0, 0.00503281
546.0, 0.00710079
552.0, 0.00780973
558.0, 0.0288215
564.0, 0.0636484
570.0, 0.115486
576.0, 0.0667113
582.0, 0.0217801
588.0, 0.00719406
594.0, 0.00202348
600.0, 0.00239614
606.0, 0.00199357
612.0, 0.0177625
618.0, 0.0533595
624.0, 0.0978974
630.0, 0.152853
636.0, 0.177227
642.0, 0.256903
648.0, 0.370499
654.0, 0.665819
660.0, 0.967663
666.0, 0.849085
672.0, 0.496339
678.0, 0.266083
684.0, 0.131583
690.0, 0.0647617
696.0, 0.0396678
702.0, 0.0310287
708.0, 0.0255216
714.0, 0.00524478
720.0, 0.00229605
726.0, 0.00392752
732.0, 0.00254675
738.0, 0.000453374
744.0, 0.00077346
750.0, 0.00968914
756.0, 0.000813109
762.0, 0.00205087
768.0, 0.00561527
774.0, 0.009847
780.0, 0.0161443
786.0, 0.0144435
792.0, 0.0338172
798.0, 0.0332273
804.0, 0.0283644
810.0, 0.0295917
816.0, 0.0192734
822.0, 0.0196407
828.0, 0.0220852
834.0, 0.00080445
840.0, 0.00302012
846.0, 0.00523491
852.0, 0.00598683
858.0, 0.00309113
864.0, 0.00122142
870.0, 0.0156714
876.0, 0.0368401
882.0, 0.0769797
888.0, 0.22602
894.0, 0.451192
900.0, 0.294679
906.0, 0.106033
912.0, 0.063519
918.0, 0.0695413
924.0, 0.0833994
930.0, 0.138189
936.0, 0.102394
942.0, 0.0404786
948.0, 0.0353365
954.0, 0.00663519
960.0, 0.00504821
966.0, 0.00419531
972.0, 0.000674881
978.0, 0.00136148
984.0, 0.015353
990.0, 0.0224157
996.0, 0.0148143
1002.0, 0.0373925
1008.0, 0.0186355
1014.0, 0.0210577
1020.0, 0.0205139
1026.0, 0.0333179
1032.0, 0.00631235
1038.0, 0.00784727
1044.0, 0.00467593
1050.0, 0.0137717
1056.0, 0.0108513
1062.0, 0.00380737
1068.0, 0.000343245
1074.0, 0.0117974
1080.0, 0.0182632
1086.0, 0.00846223
1092.0, 0.00645814
1098.0, 0.0200961
1104.0, 0.015662
1110.0, 0.00610438
1116.0, 0.0198968
1122.0, 0.0306336
1128.0, 0.0272616
1134.0, 0.0300332
1140.0, 0.0162615
1146.0, 0.0161464
1152.0, 0.0100031
1158.0, 0.0177989
1164.0, 0.0136713
1170.0, 0.00518926
1176.0, 0.000402436
1182.0, 0.0182194
1188.0, 0.00617282
1194.0, 0.01585
1200.0, 0.00539083
1206.0, 0.0115603
1212.0, 0.00899743
1218.0, 0.00968035
1224.0, 0.000199733
1230, 0.0
1236, 0.0
1242, 0.0
1248, 0.0
1254, 0.0
1260, 0.0
1266, 0.0
1272, 0.0
1278, 0.0
1284, 0.0
1290, 0.0
1296, 0.0
1302, 0.0
1308, 0.0
1314, 0.0
1320, 0.0
1326, 0.0
1332, 0.0
1338, 0.0
1344, 0.0
1350, 0.0
1356, 0.0
1362, 0.0
1368, 0.0
1374, 0.0
1380, 0.0
1386, 0.0
1392, 0.0
1398, 0.0
1404, 0.0
1410, 0.0
1416, 0.0
1422, 0.0
1428, 0.0
1434, 0.0
1440, 0.0
1446, 0.0
1452, 0.0
1458, 0.0
1464, 0.0
1470, 0.0
1476, 0.0
1482, 0.0
1488, 0.0
1494, 0.0
1500, 0.0
1506, 0.0
1512, 0.0
1518, 0.0
1524, 0.0
1530, 0.0
1536, 0.0
1542, 0.0
1548, 0.0
1554, 0.0
1560, 0.0
1566, 0.0
1572, 0.0
1578, 0.0
1584, 0.0
1590, 0.0
1596, 0.0
1599, 0.0