File: raw data/Dataset_2/Brassite/Brassite__R060042__Raman__532__0__unoriented__Raman_Data_Processed__26879.txt
30, 0.0
36, 0.0
42, 0.0
48, 0.0
54, 0.0
60, 0.0
66, 0.0
72, 0.0
78, 0.0
84, 0.0
90, 0.0
96, 0.0
102, 0.0
108, 0.0
114, 0.0
120, 0.0
126, 0.0
132, 0.0
138, 0.0
144, 0.0
150, 0.0
156, 0.0
162, 0.0
168.0, 0.00651822
174.0, 0.0101129
180.0, 0.0350477
186.0, 0.0309061
192.0, 0.0283456
198.0, 0.0394778
204.0, 0.0252265
210.0, 0.0139343
216.0, 0.00200967
222.0, 0.00140812
228.0, 0.00189839
234.0, 0.00460814
240.0, 0.0186252
246.0, 0.0261995
252.0, 0.0141963
258.0, 0.0251972
264.0, 0.0320615
270.0, 0.0513746
276.0, 0.0606152
282.0, 0.0571743
288.0, 0.0792067
294.0, 0.107222
300.0, 0.0882514
306.0, 0.0588119
312.0, 0.0172565
318.0, 0.00709528
324.0, 0.000306977
330.0, 0.0156281
336.0, 0.00708716
342.0, 0.00749318
348.0, 0.00251324
354.0, 0.00506415
360.0, 0.0149314
366.0, 0.0220984
372.0, 0.0582648
378.0, 0.0899021
384.0, 0.138182
390.0, 0.166129
396.0, 0.163281
402.0, 0.16032
408.0, 0.142685
414.0, 0.116079
420.0, 0.0813856
426.0, 0.0680401
432.0, 0.0673518
438.0, 0.0419266
444.0, 0.0434742
450.0, 0.0423817
456.0, 0.0327707
462.0, 0.0176462
468.0, 0.0109794
474.0, 0.00589391
480.0, 0.00638853
486.0, 0.00112758
492.0, 0.00164359
498.0, 0.00328476
504.0, 0.0169914
510.0, 0.012504
516.0, 0.0142004
522.0, 0.0212681
528.0, 0.0177961
534.0, 0.0216591
540.0, 0.0196169
546.0, 0.0286487
552.0, 0.0244326
558.0, 0.0250036
564.0, 0.0324482
570.0, 0.0304695
576.0, 0.0367095
582.0, 0.0358722
588.0, 0.0336477
594.0, 0.0336403
600.0, 0.0312116
606.0, 0.0212458
612.0, 0.0126549
618.0, 0.0157704
624.0, 0.00285712
630.0, 0.00759014
636.0, 0.0018297
642.0, 0.00492861
648.0, 0.00433549
654.0, 0.000929852
660.0, 0.000480429
666.0, 0.00659866
672.0, 0.0180974
678.0, 0.0422845
684.0, 0.065804
690.0, 0.0902887
696.0, 0.113947
702.0, 0.108097
708.0, 0.104321
714.0, 0.0819518
720.0, 0.0690859
726.0, 0.0471924
732.0, 0.0250771
738.0, 0.00686048
744.0, 0.00505061
750.0, 0.00506154
756.0, 0.0054154
762.0, 0.00692917
768.0, 0.00861391
774.0, 0.0433154
780.0, 0.102684
786.0, 0.217823
792.0, 0.385314
798.0, 0.655544
804.0, 0.92018
810.0, 0.981151
816.0, 0.710059
822.0, 0.416482
828.0, 0.241756
834.0, 0.157142
840.0, 0.121087
846.0, 0.136729
852.0, 0.212086
858.0, 0.344022
864.0, 0.396679
870.0, 0.318784
876.0, 0.224997
882.0, 0.160957
888.0, 0.105296
894.0, 0.0528766
900.0, 0.0220024
906.0, 0.0141756
912.0, 0.000471235
918.0, 0.000341816
924.0, 0.000759018
930.0, 0.00530979
936.0, 0.00510876
942.0, 0.00193109
948.0, 0.00202396
954.0, 0.00249144
960.0, 0.0104468
966.0, 0.00860928
972.0, 0.0228569
978.0, 0.0173555
984.0, 0.022234
990.0, 0.0228928
996.0, 0.0158257
1002.0, 0.0152066
1008.0, 0.0154171
1014.0, 0.0153912
1020.0, 0.0190287
1026.0, 0.00431978
1032.0, 0.0177828
1038.0, 0.0148921
1044.0, 0.00853962
1050.0, 0.00920313
1056.0, 0.00762445
1062.0, 0.00453233
1068.0, 0.00515416
1074.0, 0.0056946
1080.0, 0.0117742
1086.0, 0.00849146
1092.0, 0.0101668
1098.0, 0.0101449
1104.0, 0.0139714
1110.0, 0.0104253
1116.0, 0.00563728
1122.0, 0.0135223
1128.0, 0.0021625
1134.0, 0.00411468
1140.0, 0.0085571
1146.0, 0.0127037
1152.0, 0.0214488
1158.0, 0.00677135
1164.0, 0.00591516
1170.0, 0.00854878
1176.0, 0.00696505
1182.0, 0.00622103
1188.0, 0.00165732
1194.0, 0.00452924
1200.0, 0.00901588
1206.0, 0.0129595
1212.0, 0.00332159
1218.0, 0.00856973
1224.0, 0.0106846
1230.0, 0.00964665
1236.0, 0.0179765
1242.0, 0.00519335
1248.0, 0.00734123
1254.0, 0.0143365
1260.0, 0.00441673
1266.0, 0.00781019
1272.0, 0.0177274
1278.0, 0.00885947
1284.0, 0.00798105
1290.0, 0.00033628
1296, 0.0
1302, 0.0
1308, 0.0
1314, 0.0
1320, 0.0
1326, 0.0
1332, 0.0
1338, 0.0
1344, 0.0
1350, 0.0
1356, 0.0
1362, 0.0
1368, 0.0
1374, 0.0
1380, 0.0
1386, 0.0
1392, 0.0
1398, 0.0
1404, 0.0
1410, 0.0
1416, 0.0
1422, 0.0
1428, 0.0
1434, 0.0
1440, 0.0
1446, 0.0
1452, 0.0
1458, 0.0
1464, 0.0
1470, 0.0
1476, 0.0
1482, 0.0
1488, 0.0
1494, 0.0
1500, 0.0
1506, 0.0
1512, 0.0
1518, 0.0
1524, 0.0
1530, 0.0
1536, 0.0
1542, 0.0
1548, 0.0
1554, 0.0
1560, 0.0
1566, 0.0
1572, 0.0
1578, 0.0
1584, 0.0
1590, 0.0
1596, 0.0
1599, 0.0