File: raw data/Dataset_2/Brassite/Brassite__R060042__Raman__780__0__unoriented__Raman_Data_Processed__26881.txt
30, 0.0
36, 0.0
42, 0.0
48, 0.0
54, 0.0
60, 0.0
66, 0.0
72, 0.0
78, 0.0
84, 0.0
90, 0.0
96, 0.0
102, 0.0
108, 0.0
114, 0.0
120, 0.0
126, 0.0
132, 0.0
138, 0.0
144, 0.0
150, 0.0
156, 0.0
162, 0.0
168, 0.0
174.0, 0.0100028
180.0, 0.0453556
186.0, 0.0318795
192.0, 0.0363036
198.0, 0.0569019
204.0, 0.0362018
210.0, 0.0124211
216.0, 0.00122901
222.0, 0.00330348
228.0, 0.00308068
234.0, 0.0152411
240.0, 0.035829
246.0, 0.0384434
252.0, 0.0281125
258.0, 0.0283827
264.0, 0.0496323
270.0, 0.0701864
276.0, 0.0826816
282.0, 0.0976834
288.0, 0.125574
294.0, 0.162066
300.0, 0.137962
306.0, 0.0844569
312.0, 0.0330877
318.0, 0.009164
324.0, 0.00566884
330.0, 0.0117358
336.0, 0.000412861
342.0, 0.00121513
348.0, 0.00493273
354.0, 0.0114189
360.0, 0.0227212
366.0, 0.0403203
372.0, 0.0861895
378.0, 0.141782
384.0, 0.200109
390.0, 0.226143
396.0, 0.225444
402.0, 0.206606
408.0, 0.181317
414.0, 0.145059
420.0, 0.111595
426.0, 0.0890271
432.0, 0.0698627
438.0, 0.05865
444.0, 0.0454227
450.0, 0.0435015
456.0, 0.0339797
462.0, 0.0208734
468.0, 0.00910745
474.0, 0.000663469
480.0, 0.00622089
486.0, 0.00110238
492.0, 0.00353144
498.0, 0.00376841
504.0, 0.00682033
510.0, 0.0130406
516.0, 0.0157131
522.0, 0.0192328
528.0, 0.022765
534.0, 0.027871
540.0, 0.0200064
546.0, 0.0226376
552.0, 0.0209072
558.0, 0.0247762
564.0, 0.0316025
570.0, 0.0311844
576.0, 0.0393034
582.0, 0.0363464
588.0, 0.037051
594.0, 0.0342428
600.0, 0.0292908
606.0, 0.0265305
612.0, 0.0145115
618.0, 0.0125071
624.0, 0.00786541
630.0, 0.00363356
636.0, 0.00482478
642.0, 3.34982e-05
648.0, 0.000422819
654.0, 0.00134344
660.0, 0.00176084
666.0, 0.00911886
672.0, 0.0231469
678.0, 0.0436458
684.0, 0.0680771
690.0, 0.0983632
696.0, 0.114957
702.0, 0.113859
708.0, 0.0975491
714.0, 0.0758411
720.0, 0.0500334
726.0, 0.0399298
732.0, 0.0197394
738.0, 0.00886761
744.0, 0.000339318
750.0, 0.0025111
756.0, 0.00996118
762.0, 0.00557998
768.0, 0.010645
774.0, 0.0479517
780.0, 0.114323
786.0, 0.227233
792.0, 0.42361
798.0, 0.692267
804.0, 0.940182
810.0, 0.971998
816.0, 0.698864
822.0, 0.405398
828.0, 0.232488
834.0, 0.149005
840.0, 0.128814
846.0, 0.161491
852.0, 0.238568
858.0, 0.35626
864.0, 0.411133
870.0, 0.321363
876.0, 0.231454
882.0, 0.170905
888.0, 0.109374
894.0, 0.0562604
900.0, 0.0289128
906.0, 0.0106118
912.0, 0.00442454
918.0, 0.00509611
924.0, 0.00280371
930.0, 0.000641898
936.0, 0.00366213
942.0, 0.000155934
948.0, 0.00542883
954.0, 0.00718659
960.0, 0.0096025
966.0, 0.0126718
972.0, 0.0162576
978.0, 0.0155517
984.0, 0.0162398
990.0, 0.0129699
996.0, 0.0148903
1002.0, 0.00800178
1008.0, 0.0110875
1014.0, 0.00599962
1020.0, 0.00977664
1026.0, 0.0111064
1032.0, 0.0106691
1038.0, 0.00680267
1044.0, 0.00758033
1050.0, 0.00752061
1056.0, 0.00685106
1062.0, 0.00850686
1068.0, 0.00397212
1074.0, 0.0048481
1080.0, 0.00288907
1086.0, 0.00277775
1092.0, 0.00257189
1098.0, 0.00721013
1104.0, 0.00294854
1110.0, 0.000747513
1116.0, 0.00139644
1122.0, 0.000898071
1128.0, 0.00366304
1134.0, 0.00641316
1140.0, 0.0028999
1146.0, 0.00541648
1152.0, 0.00236113
1158.0, 0.00468579
1164.0, 0.00477406
1170.0, 0.00272565
1176.0, 0.00230805
1182.0, 0.00448917
1188.0, 0.00433226
1194.0, 0.00238226
1200.0, 0.00401181
1206.0, 0.00247083
1212.0, 0.00434189
1218.0, 0.00534181
1224.0, 0.00235725
1230.0, 0.00896637
1236.0, 0.00759625
1242.0, 0.00688612
1248.0, 0.00486898
1254.0, 0.00525862
1260.0, 0.0021862
1266.0, 0.00540354
1272.0, 0.00335656
1278, 0.0
1284, 0.0
1290, 0.0
1296, 0.0
1302, 0.0
1308, 0.0
1314, 0.0
1320, 0.0
1326, 0.0
1332, 0.0
1338, 0.0
1344, 0.0
1350, 0.0
1356, 0.0
1362, 0.0
1368, 0.0
1374, 0.0
1380, 0.0
1386, 0.0
1392, 0.0
1398, 0.0
1404, 0.0
1410, 0.0
1416, 0.0
1422, 0.0
1428, 0.0
1434, 0.0
1440, 0.0
1446, 0.0
1452, 0.0
1458, 0.0
1464, 0.0
1470, 0.0
1476, 0.0
1482, 0.0
1488, 0.0
1494, 0.0
1500, 0.0
1506, 0.0
1512, 0.0
1518, 0.0
1524, 0.0
1530, 0.0
1536, 0.0
1542, 0.0
1548, 0.0
1554, 0.0
1560, 0.0
1566, 0.0
1572, 0.0
1578, 0.0
1584, 0.0
1590, 0.0
1596, 0.0
1599, 0.0