File: raw data/Dataset_2/Ferrokesterite/Ferrokesterite__R060870__Raman__532__0__unoriented__Raman_Data_Processed__14123.txt
30, 0.0
36, 0.0
42, 0.0
48, 0.0
54, 0.0
60, 0.0
66, 0.0
72, 0.0
78, 0.0
84, 0.0
90, 0.0
96, 0.0
102, 0.0
108, 0.0
114, 0.0
120, 0.0
126, 0.0
132, 0.0
138, 0.0
144.0, 0.00833114
150.0, 0.005715
156.0, 0.045084
162.0, 0.0184433
168.0, 0.0186927
174.0, 0.022727
180.0, 0.0157541
186.0, 0.0170808
192.0, 0.00905778
198.0, 0.0134482
204.0, 0.00822583
210.0, 0.0159352
216.0, 0.00685878
222.0, 0.00778667
228.0, 0.0103941
234.0, 0.0101756
240.0, 0.00260231
246.0, 0.0438245
252.0, 0.0434095
258.0, 0.0199708
264.0, 0.0183095
270.0, 0.0373083
276.0, 0.0629569
282.0, 0.123755
288.0, 0.126273
294.0, 0.0901059
300.0, 0.106645
306.0, 0.217933
312.0, 0.506123
318.0, 0.916726
324.0, 0.862032
330.0, 0.451393
336.0, 0.245499
342.0, 0.193489
348.0, 0.116523
354.0, 0.101673
360.0, 0.0752155
366.0, 0.0284983
372.0, 0.00794954
378.0, 0.000282524
384.0, 0.00843068
390.0, 0.00861531
396.0, 0.00598736
402.0, 0.00191917
408.0, 0.0199343
414.0, 0.0199071
420.0, 0.00858763
426.0, 0.030956
432.0, 0.0068854
438.0, 0.0101132
444.0, 0.0158611
450.0, 0.024373
456.0, 0.033973
462.0, 0.0337869
468.0, 0.025362
474.0, 0.0502085
480.0, 0.0332363
486.0, 0.0114563
492.0, 0.0193239
498.0, 0.00298132
504.0, 0.00337199
510.0, 0.0117967
516.0, 0.0217068
522.0, 0.00136515
528.0, 0.00784264
534.0, 0.00608243
540.0, 0.0232026
546.0, 0.0234786
552.0, 0.0118383
558.0, 0.00543263
564.0, 0.0120358
570.0, 0.0126647
576.0, 0.00415662
582.0, 0.0305826
588.0, 0.00863487
594.0, 0.00942186
600.0, 0.0335888
606.0, 0.0129229
612.0, 0.0204581
618.0, 0.030112
624.0, 0.0258733
630.0, 0.0497184
636.0, 0.0361148
642.0, 0.0452498
648.0, 0.0372821
654.0, 0.0386414
660.0, 0.0249575
666.0, 0.0159162
672.0, 0.0124203
678.0, 0.0521156
684.0, 0.0236995
690.0, 0.0234615
696.0, 0.0118892
702.0, 0.0201266
708.0, 0.0210692
714.0, 0.0111496
720.0, 0.0141622
726.0, 0.017415
732.0, 0.0222483
738.0, 0.0157143
744.0, 0.016238
750.0, 0.00290387
756.0, 0.0128105
762.0, 0.0193073
768.0, 0.0222401
774.0, 0.0118667
780.0, 0.0242557
786.0, 0.00281762
792.0, 0.0110241
798.0, 0.0105989
804.0, 0.0179077
810.0, 0.0123457
816.0, 0.0177884
822.0, 0.0214947
828.0, 0.0302608
834.0, 0.012511
840.0, 0.0305264
846.0, 0.015162
852.0, 0.0161179
858.0, 0.0192231
864.0, 0.00313183
870.0, 0.0150214
876.0, 0.0203524
882.0, 0.0188425
888.0, 0.025388
894.0, 0.0122642
900.0, 0.0140034
906.0, 0.0225413
912.0, 0.0150856
918.0, 0.00181843
924.0, 0.0116857
930.0, 0.0201577
936.0, 0.024769
942.0, 0.0096419
948.0, 0.0134735
954.0, 0.0272281
960.0, 0.0187495
966.0, 0.0200206
972.0, 0.00468496
978.0, 0.017207
984.0, 0.00950417
990.0, 0.0247763
996.0, 0.0147867
1002.0, 0.0116636
1008.0, 0.00488142
1014.0, 0.0073085
1020.0, 0.0178003
1026.0, 0.0221235
1032.0, 0.0222826
1038.0, 0.0225175
1044.0, 0.0224279
1050.0, 0.010838
1056.0, 0.0205378
1062.0, 0.0132514
1068.0, 0.0192994
1074.0, 0.00288951
1080.0, 0.0186926
1086.0, 0.0112777
1092.0, 0.0148078
1098.0, 0.0137925
1104.0, 0.0288163
1110.0, 0.0250085
1116.0, 0.0266772
1122.0, 0.0170948
1128.0, 0.0212912
1134.0, 0.0105862
1140.0, 0.0230143
1146.0, 0.000897615
1152.0, 0.0131023
1158.0, 0.0184319
1164.0, 0.0134267
1170.0, 0.0187019
1176.0, 0.0212527
1182.0, 0.0150638
1188.0, 0.027148
1194.0, 0.00483294
1200.0, 0.0161368
1206.0, 0.019407
1212.0, 0.0100248
1218.0, 0.0238085
1224.0, 0.00544403
1230.0, 0.00265839
1236.0, 0.0102255
1242.0, 0.0215449
1248.0, 0.0251305
1254.0, 0.0213515
1260.0, 0.0344094
1266, 0.0
1272, 0.0
1278, 0.0
1284, 0.0
1290, 0.0
1296, 0.0
1302, 0.0
1308, 0.0
1314, 0.0
1320, 0.0
1326, 0.0
1332, 0.0
1338, 0.0
1344, 0.0
1350, 0.0
1356, 0.0
1362, 0.0
1368, 0.0
1374, 0.0
1380, 0.0
1386, 0.0
1392, 0.0
1398, 0.0
1404, 0.0
1410, 0.0
1416, 0.0
1422, 0.0
1428, 0.0
1434, 0.0
1440, 0.0
1446, 0.0
1452, 0.0
1458, 0.0
1464, 0.0
1470, 0.0
1476, 0.0
1482, 0.0
1488, 0.0
1494, 0.0
1500, 0.0
1506, 0.0
1512, 0.0
1518, 0.0
1524, 0.0
1530, 0.0
1536, 0.0
1542, 0.0
1548, 0.0
1554, 0.0
1560, 0.0
1566, 0.0
1572, 0.0
1578, 0.0
1584, 0.0
1590, 0.0
1596, 0.0
1599, 0.0