File: raw data/Dataset_2/Ferrokesterite/Ferrokesterite__R060870__Raman__785__0__unoriented__Raman_Data_Processed__13044.txt
30, 0.0
36, 0.0
42, 0.0
48, 0.0
54, 0.0
60, 0.0
66, 0.0
72, 0.0
78, 0.0
84, 0.0
90, 0.0
96, 0.0
102, 0.0
108, 0.0
114, 0.0
120, 0.0
126, 0.0
132, 0.0
138, 0.0
144, 0.0
150, 0.0
156.0, 0.000998532
162.0, 0.00887575
168.0, 0.00933103
174.0, 0.00669251
180.0, 0.00337141
186.0, 0.00498123
192.0, 0.00228671
198.0, 0.00298544
204.0, 0.00208108
210.0, 0.00215087
216.0, 0.000854513
222.0, 0.000120101
228.0, 0.00232935
234.0, 0.00206884
240.0, 0.00456377
246.0, 0.010623
252.0, 0.0150116
258.0, 0.0167674
264.0, 0.0207917
270.0, 0.0374019
276.0, 0.0844921
282.0, 0.128377
288.0, 0.104359
294.0, 0.0853371
300.0, 0.102076
306.0, 0.197957
312.0, 0.510991
318.0, 0.94597
324.0, 0.860692
330.0, 0.388295
336.0, 0.133467
342.0, 0.0795305
348.0, 0.0557478
354.0, 0.0653096
360.0, 0.0478622
366.0, 0.0189254
372.0, 0.00618941
378.0, 0.00162892
384.0, 0.00441726
390.0, 0.00158506
396.0, 0.00065511
402.0, 0.000918071
408.0, 0.000123475
414.0, 0.00334777
420.0, 0.00163888
426.0, 0.00388756
432.0, 0.0036113
438.0, 0.0055499
444.0, 0.0043295
450.0, 0.00413899
456.0, 0.00392771
462.0, 0.00491634
468.0, 0.00399055
474.0, 0.00363897
480.0, 0.00347168
486.0, 0.00198966
492.0, 0.00240824
498.0, 0.000795124
504.0, 0.00179211
510.0, 0.000457776
516.0, 0.00115869
522.0, 0.000443033
528.0, 0.000780191
534.0, 0.000634276
540.0, 0.00155101
546.0, 0.0017705
552.0, 0.00060031
558.0, 0.00122249
564.0, 0.00150714
570.0, 0.000383426
576.0, 0.00183555
582.0, 0.00358903
588.0, 0.00488345
594.0, 0.0048365
600.0, 0.00653187
606.0, 0.0095674
612.0, 0.0125498
618.0, 0.0182453
624.0, 0.0198334
630.0, 0.0264004
636.0, 0.0291585
642.0, 0.0263264
648.0, 0.0239488
654.0, 0.0161394
660.0, 0.0106199
666.0, 0.00767017
672.0, 0.00613578
678.0, 0.00524731
684.0, 0.00259856
690.0, 0.000986021
696.0, 0.000278319
702.0, 0.00141195
708.0, 0.00176059
714.0, 0.00355309
720.0, 0.00321933
726.0, 0.00140365
732.0, 0.000172991
738.0, 0.00178611
744.0, 0.00143284
750.0, 0.00143054
756.0, 0.00192832
762.0, 0.0022126
768.0, 0.000707015
774.0, 0.00231999
780.0, 0.00198843
786.0, 0.0025688
792.0, 0.00354707
798.0, 0.00204086
804.0, 0.000244516
810.0, 0.00292835
816.0, 0.00258422
822.0, 0.00283771
828.0, 0.00149851
834.0, 0.000995981
840.0, 0.0015804
846.0, 0.00213438
852.0, 9.53578e-05
858.0, 0.00201009
864.0, 0.000520445
870.0, 0.000906768
876.0, 0.00246379
882.0, 0.00110336
888.0, 0.00053084
894.0, 0.00041222
900.0, 0.000879208
906.0, 0.000911142
912.0, 0.00161503
918.0, 0.000112006
924.0, 0.00101446
930.0, 0.00216145
936.0, 0.0017062
942.0, 0.00421143
948.0, 0.0029162
954.0, 0.00393205
960.0, 0.00382994
966.0, 0.00286899
972.0, 0.00337647
978.0, 0.00282376
984.0, 0.00269032
990.0, 0.00075476
996.0, 0.000532592
1002.0, 0.00216558
1008.0, 0.00231591
1014.0, 0.00269042
1020.0, 0.00155172
1026.0, 0.000662439
1032.0, 0.00228519
1038.0, 0.00224999
1044.0, 0.00264338
1050.0, 0.00151134
1056.0, 0.000764941
1062.0, 0.000645245
1068.0, 0.00145257
1074.0, 0.00187328
1080.0, 0.00216856
1086.0, 0.00137174
1092.0, 0.000973737
1098.0, 0.00153484
1104.0, 0.0010303
1110.0, 0.00143452
1116.0, 0.000142524
1122.0, 0.000483729
1128.0, 0.00169376
1134.0, 0.000868911
1140.0, 0.00150447
1146.0, 0.00118716
1152.0, 0.00140277
1158.0, 0.00166241
1164.0, 0.00198571
1170.0, 0.00210729
1176.0, 0.00194679
1182.0, 0.00310886
1188.0, 0.00189905
1194.0, 0.00352567
1200.0, 0.00257393
1206.0, 0.00162065
1212.0, 0.0026454
1218.0, 0.00474504
1224.0, 0.00418928
1230.0, 0.00374385
1236.0, 0.00190242
1242.0, 0.00219536
1248.0, 0.00257797
1254.0, 0.00350846
1260.0, 0.00168621
1266.0, 0.00167372
1272.0, 6.31121e-05
1278, 0.0
1284, 0.0
1290, 0.0
1296, 0.0
1302, 0.0
1308, 0.0
1314, 0.0
1320, 0.0
1326, 0.0
1332, 0.0
1338, 0.0
1344, 0.0
1350, 0.0
1356, 0.0
1362, 0.0
1368, 0.0
1374, 0.0
1380, 0.0
1386, 0.0
1392, 0.0
1398, 0.0
1404, 0.0
1410, 0.0
1416, 0.0
1422, 0.0
1428, 0.0
1434, 0.0
1440, 0.0
1446, 0.0
1452, 0.0
1458, 0.0
1464, 0.0
1470, 0.0
1476, 0.0
1482, 0.0
1488, 0.0
1494, 0.0
1500, 0.0
1506, 0.0
1512, 0.0
1518, 0.0
1524, 0.0
1530, 0.0
1536, 0.0
1542, 0.0
1548, 0.0
1554, 0.0
1560, 0.0
1566, 0.0
1572, 0.0
1578, 0.0
1584, 0.0
1590, 0.0
1596, 0.0
1599, 0.0