File: raw data/Dataset_2/Ferrokesterite/Ferrokesterite__R110173__Raman__780__0__unoriented__Raman_Data_Processed__35822.txt
30, 0.0
36, 0.0
42, 0.0
48, 0.0
54, 0.0
60, 0.0
66, 0.0
72, 0.0
78, 0.0
84, 0.0
90, 0.0
96.0, 0.0515165
102.0, 0.0019081
108.0, 0.00145066
114.0, 0.0135175
120.0, 0.021159
126.0, 0.0266579
132.0, 0.0369094
138.0, 0.0403926
144.0, 0.0330887
150.0, 0.0216864
156.0, 0.00914823
162.0, 1.83636e-05
168.0, 0.0020895
174.0, 8.88697e-05
180.0, 0.00137646
186.0, 0.000468358
192.0, 0.0028644
198.0, 0.00364792
204.0, 0.000657706
210.0, 0.000373747
216.0, 0.000281053
222.0, 0.00165355
228.0, 0.00379206
234.0, 0.00153988
240.0, 0.00276295
246.0, 0.0108851
252.0, 0.0224258
258.0, 0.0375901
264.0, 0.0516047
270.0, 0.0592666
276.0, 0.0892673
282.0, 0.204537
288.0, 0.289575
294.0, 0.145645
300.0, 0.131307
306.0, 0.139375
312.0, 0.172195
318.0, 0.281735
324.0, 0.591821
330.0, 0.987477
336.0, 0.845075
342.0, 0.220631
348.0, 0.121766
354.0, 0.105402
360.0, 0.129332
366.0, 0.141199
372.0, 0.075816
378.0, 0.0133069
384.0, 0.00312611
390.0, 0.00237631
396.0, 0.00330758
402.0, 0.00188997
408.0, 0.00198814
414.0, 0.00399427
420.0, 0.00649332
426.0, 0.00973454
432.0, 0.0118659
438.0, 0.0132271
444.0, 0.0129469
450.0, 0.0119424
456.0, 0.00724965
462.0, 0.00830864
468.0, 0.0062089
474.0, 0.00866398
480.0, 0.00648146
486.0, 0.00605255
492.0, 0.00548696
498.0, 0.00235914
504.0, 0.00346299
510.0, 0.00193326
516.0, 0.000207051
522.0, 0.000144898
528.0, 0.00022241
534.0, 0.000760552
540.0, 5.85982e-05
546.0, 0.000480889
552.0, 0.00152476
558.0, 0.000811734
564.0, 0.000747218
570.0, 0.00111033
576.0, 0.00205882
582.0, 0.00140015
588.0, 0.00115037
594.0, 0.00357682
600.0, 0.00377379
606.0, 0.00546317
612.0, 0.00822196
618.0, 0.00695366
624.0, 0.00990601
630.0, 0.0103564
636.0, 0.0112443
642.0, 0.0119068
648.0, 0.0129279
654.0, 0.0163756
660.0, 0.0200418
666.0, 0.0165748
672.0, 0.00939189
678.0, 0.00627034
684.0, 0.00490654
690.0, 0.00205939
696.0, 0.000865527
702.0, 0.000304806
708.0, 0.000693387
714.0, 0.00147378
720.0, 0.00374292
726.0, 0.00387377
732.0, 0.00483862
738.0, 0.00322323
744.0, 0.00328961
750.0, 0.00156025
756.0, 0.000771022
762.0, 0.000669333
768.0, 0.00143742
774.0, 0.00130101
780.0, 0.0026423
786.0, 0.00137618
792.0, 0.00204652
798.0, 0.00272242
804.0, 0.00174703
810.0, 0.00315839
816.0, 0.00277707
822.0, 0.00364354
828.0, 0.00189954
834.0, 0.00149653
840.0, 0.00196874
846.0, 0.000357821
852.0, 0.00138743
858.0, 0.000934703
864.0, 0.000920475
870.0, 0.00109837
876.0, 0.00140119
882.0, 0.000715027
888.0, 0.000964139
894.0, 0.000626668
900.0, 0.000317722
906.0, 0.00117982
912.0, 0.000455801
918.0, 0.000778354
924.0, 0.000884224
930.0, 0.00177382
936.0, 0.00119294
942.0, 0.00145396
948.0, 0.000506828
954.0, 0.00149562
960.0, 0.00117289
966.0, 0.00013014
972.0, 0.000227326
978.0, 0.000481724
984.0, 0.000116269
990.0, 0.000870725
996.0, 0.00015045
1002.0, 0.000734658
1008.0, 0.00104525
1014.0, 0.00232176
1020.0, 0.0018802
1026.0, 0.000801248
1032.0, 0.00195089
1038.0, 0.00154773
1044.0, 0.0016586
1050.0, 0.000564771
1056.0, 0.000938279
1062.0, 0.00106787
1068.0, 0.00170608
1074.0, 0.00148879
1080.0, 0.000949397
1086.0, 0.000236177
1092.0, 0.000660721
1098.0, 0.000289639
1104.0, 0.000963059
1110.0, 0.000168972
1116.0, 0.00100621
1122.0, 0.00136782
1128.0, 0.00167711
1134.0, 0.00262463
1140.0, 0.000567744
1146.0, 0.00230382
1152.0, 0.00197937
1158.0, 0.00191317
1164.0, 0.00283548
1170.0, 0.00242504
1176.0, 0.00366034
1182.0, 0.00205886
1188.0, 0.0015255
1194.0, 0.00215144
1200.0, 0.00253492
1206.0, 0.00180981
1212.0, 0.0015292
1218.0, 0.0028059
1224.0, 0.0028144
1230.0, 0.000646419
1236.0, 0.000915481
1242.0, 3.89458e-05
1248.0, 0.000446445
1254.0, 0.000419434
1260.0, 0.000866334
1266.0, 0.0013596
1272.0, 0.00149307
1278.0, 0.00156791
1284.0, 0.00039742
1290, 0.0
1296, 0.0
1302, 0.0
1308, 0.0
1314, 0.0
1320, 0.0
1326, 0.0
1332, 0.0
1338, 0.0
1344, 0.0
1350, 0.0
1356, 0.0
1362, 0.0
1368, 0.0
1374, 0.0
1380, 0.0
1386, 0.0
1392, 0.0
1398, 0.0
1404, 0.0
1410, 0.0
1416, 0.0
1422, 0.0
1428, 0.0
1434, 0.0
1440, 0.0
1446, 0.0
1452, 0.0
1458, 0.0
1464, 0.0
1470, 0.0
1476, 0.0
1482, 0.0
1488, 0.0
1494, 0.0
1500, 0.0
1506, 0.0
1512, 0.0
1518, 0.0
1524, 0.0
1530, 0.0
1536, 0.0
1542, 0.0
1548, 0.0
1554, 0.0
1560, 0.0
1566, 0.0
1572, 0.0
1578, 0.0
1584, 0.0
1590, 0.0
1596, 0.0
1599, 0.0