File: raw data/Dataset_2/Ferrokesterite/Ferrokesterite__R110173__Raman__532__0__unoriented__Raman_Data_Processed__35820.txt
30, 0.0
36, 0.0
42, 0.0
48, 0.0
54, 0.0
60, 0.0
66, 0.0
72, 0.0
78, 0.0
84, 0.0
90, 0.0
96, 0.0
102, 0.0
108, 0.0
114, 0.0
120, 0.0
126, 0.0
132, 0.0
138, 0.0
144, 0.0
150, 0.0
156, 0.0
162, 0.0
168, 0.0
174, 0.0
180.0, 5.36427e-05
186.0, 0.00417297
192.0, 0.00602492
198.0, 0.0106853
204.0, 0.0140263
210.0, 0.00735699
216.0, 0.00198776
222.0, 0.00393292
228.0, 0.00654467
234.0, 0.000561456
240.0, 0.0123024
246.0, 0.0301379
252.0, 0.0425536
258.0, 0.0536753
264.0, 0.0568595
270.0, 0.0733457
276.0, 0.106743
282.0, 0.150105
288.0, 0.185678
294.0, 0.150625
300.0, 0.129991
306.0, 0.158167
312.0, 0.223119
318.0, 0.391374
324.0, 0.6709
330.0, 0.970215
336.0, 0.923012
342.0, 0.486924
348.0, 0.317809
354.0, 0.251235
360.0, 0.186899
366.0, 0.116584
372.0, 0.0483757
378.0, 0.0132217
384.0, 0.00262819
390.0, 0.00597372
396.0, 0.00556673
402.0, 0.00137106
408.0, 0.0039324
414.0, 0.00570258
420.0, 0.00595519
426.0, 0.00836681
432.0, 0.00929083
438.0, 0.00991568
444.0, 0.010241
450.0, 0.0105189
456.0, 0.00692617
462.0, 0.00799517
468.0, 0.00995252
474.0, 0.0130991
480.0, 0.0110394
486.0, 0.00969559
492.0, 0.0096152
498.0, 0.0052903
504.0, 0.00485722
510.0, 0.00376934
516.0, 0.000737312
522.0, 0.000390096
528.0, 0.00178714
534.0, 0.000455497
540.0, 0.00070168
546.0, 0.000756152
552.0, 0.000646469
558.0, 0.000271171
564.0, 0.000572786
570.0, 0.000648592
576.0, 0.00130033
582.0, 0.00288279
588.0, 0.00239918
594.0, 0.00525894
600.0, 0.00697705
606.0, 0.0070344
612.0, 0.00892963
618.0, 0.00930045
624.0, 0.00989908
630.0, 0.0119325
636.0, 0.0147361
642.0, 0.0187208
648.0, 0.0221896
654.0, 0.0262124
660.0, 0.0290684
666.0, 0.0295472
672.0, 0.0256431
678.0, 0.0224176
684.0, 0.0184166
690.0, 0.0132436
696.0, 0.00962345
702.0, 0.00675491
708.0, 0.00270777
714.0, 0.00202165
720.0, 0.000516765
726.0, 0.000400652
732.0, 0.00131448
738.0, 0.00176018
744.0, 0.00085245
750.0, 0.000279572
756.0, 0.00160704
762.0, 0.00140565
768.0, 0.000557608
774.0, 0.00211361
780.0, 0.00129352
786.0, 0.00148665
792.0, 0.00105381
798.0, 0.000806274
804.0, 0.00151477
810.0, 0.00220314
816.0, 0.00223683
822.0, 0.00140552
828.0, 0.00375611
834.0, 0.0020312
840.0, 0.00317655
846.0, 0.00149301
852.0, 0.000292862
858.0, 0.00186421
864.0, 0.00177471
870.0, 0.00128861
876.0, 0.00217228
882.0, 0.000686833
888.0, 0.000586341
894.0, 0.00123389
900.0, 0.000364552
906.0, 0.000416396
912.0, 0.00289287
918.0, 0.0040577
924.0, 0.00208108
930.0, 0.00180111
936.0, 0.00133542
942.0, 0.00246581
948.0, 0.00423702
954.0, 0.00307842
960.0, 0.00300868
966.0, 0.00205843
972.0, 0.00236743
978.0, 0.00348302
984.0, 0.00581023
990.0, 0.00478955
996.0, 0.00648807
1002.0, 0.00522993
1008.0, 0.00513396
1014.0, 0.00519573
1020.0, 0.0045646
1026.0, 0.00267988
1032.0, 0.00297634
1038.0, 0.00214274
1044.0, 0.000477431
1050.0, 0.000632278
1056.0, 4.68679e-05
1062.0, 0.000755563
1068.0, 0.000280293
1074.0, 0.00122674
1080.0, 0.0011377
1086.0, 0.00271715
1092.0, 0.000739751
1098.0, 0.00173147
1104.0, 0.00150809
1110.0, 0.00156742
1116.0, 0.000965898
1122.0, 0.000436543
1128.0, 0.00187767
1134.0, 0.00131846
1140.0, 6.31258e-05
1146.0, 0.00274367
1152.0, 0.000711304
1158.0, 0.000205969
1164.0, 0.00186937
1170.0, 0.00241945
1176.0, 0.00197142
1182.0, 0.00219379
1188.0, 0.00240639
1194.0, 0.00196146
1200.0, 0.00198463
1206.0, 0.0027501
1212.0, 0.000921559
1218.0, 0.00161876
1224.0, 0.00305908
1230.0, 0.000751905
1236.0, 0.00235198
1242.0, 0.000516624
1248.0, 0.00123598
1254.0, 0.00268198
1260.0, 0.0027489
1266.0, 0.00224699
1272.0, 0.00338328
1278.0, 0.000988951
1284.0, 0.0017253
1290.0, 0.00119807
1296.0, 0.000961282
1302.0, 0.000445932
1308, 0.0
1314, 0.0
1320, 0.0
1326, 0.0
1332, 0.0
1338, 0.0
1344, 0.0
1350, 0.0
1356, 0.0
1362, 0.0
1368, 0.0
1374, 0.0
1380, 0.0
1386, 0.0
1392, 0.0
1398, 0.0
1404, 0.0
1410, 0.0
1416, 0.0
1422, 0.0
1428, 0.0
1434, 0.0
1440, 0.0
1446, 0.0
1452, 0.0
1458, 0.0
1464, 0.0
1470, 0.0
1476, 0.0
1482, 0.0
1488, 0.0
1494, 0.0
1500, 0.0
1506, 0.0
1512, 0.0
1518, 0.0
1524, 0.0
1530, 0.0
1536, 0.0
1542, 0.0
1548, 0.0
1554, 0.0
1560, 0.0
1566, 0.0
1572, 0.0
1578, 0.0
1584, 0.0
1590, 0.0
1596, 0.0
1599, 0.0