File: raw data/Dataset_2/GlassTb/GlassTb__R110081__Raman__780__0__unoriented__Raman_Data_Processed__35501.txt
30, 0.0
36, 0.0
42, 0.0
48, 0.0
54, 0.0
60, 0.0
66, 0.0
72, 0.0
78, 0.0
84, 0.0
90, 0.0
96.0, 0.985214
102.0, 0.899405
108.0, 0.882507
114.0, 0.850732
120.0, 0.827506
126.0, 0.815974
132.0, 0.79825
138.0, 0.785083
144.0, 0.77387
150.0, 0.757274
156.0, 0.74901
162.0, 0.732876
168.0, 0.727668
174.0, 0.715321
180.0, 0.713851
186.0, 0.699394
192.0, 0.690033
198.0, 0.68209
204.0, 0.675056
210.0, 0.669743
216.0, 0.667918
222.0, 0.659444
228.0, 0.652119
234.0, 0.650483
240.0, 0.643934
246.0, 0.642022
252.0, 0.637404
258.0, 0.632809
264.0, 0.63068
270.0, 0.622155
276.0, 0.621536
282.0, 0.618801
288.0, 0.612339
294.0, 0.613283
300.0, 0.619421
306.0, 0.612318
312.0, 0.613627
318.0, 0.608076
324.0, 0.607534
330.0, 0.608623
336.0, 0.612899
342.0, 0.614145
348.0, 0.611689
354.0, 0.610519
360.0, 0.610649
366.0, 0.607849
372.0, 0.603903
378.0, 0.594675
384.0, 0.595335
390.0, 0.586334
396.0, 0.585636
402.0, 0.579373
408.0, 0.581515
414.0, 0.578273
420.0, 0.572568
426.0, 0.568917
432.0, 0.568797
438.0, 0.5664
444.0, 0.566685
450.0, 0.565946
456.0, 0.566977
462.0, 0.568419
468.0, 0.563803
474.0, 0.559424
480.0, 0.556343
486.0, 0.554173
492.0, 0.550026
498.0, 0.547466
504.0, 0.543262
510.0, 0.540661
516.0, 0.529867
522.0, 0.517944
528.0, 0.508794
534.0, 0.491663
540.0, 0.483725
546.0, 0.468691
552.0, 0.459046
558.0, 0.449589
564.0, 0.442525
570.0, 0.433124
576.0, 0.421156
582.0, 0.411167
588.0, 0.391681
594.0, 0.376187
600.0, 0.359403
606.0, 0.34231
612.0, 0.33105
618.0, 0.32091
624.0, 0.3111
630.0, 0.307158
636.0, 0.3037
642.0, 0.294532
648.0, 0.287858
654.0, 0.279906
660.0, 0.273683
666.0, 0.261977
672.0, 0.252177
678.0, 0.240313
684.0, 0.228124
690.0, 0.214825
696.0, 0.201735
702.0, 0.19043
708.0, 0.18026
714.0, 0.168273
720.0, 0.158904
726.0, 0.151273
732.0, 0.141533
738.0, 0.135653
744.0, 0.122805
750.0, 0.113474
756.0, 0.109549
762.0, 0.102539
768.0, 0.0978545
774.0, 0.0916315
780.0, 0.0833199
786.0, 0.07628
792.0, 0.0694815
798.0, 0.0622902
804.0, 0.0552987
810.0, 0.0498913
816.0, 0.0469509
822.0, 0.044807
828.0, 0.0489897
834.0, 0.0522941
840.0, 0.0679847
846.0, 0.0790673
852.0, 0.0951469
858.0, 0.115425
864.0, 0.129303
870.0, 0.148599
876.0, 0.164639
882.0, 0.181932
888.0, 0.199104
894.0, 0.212157
900.0, 0.228858
906.0, 0.240974
912.0, 0.254984
918.0, 0.272211
924.0, 0.282269
930.0, 0.29296
936.0, 0.304826
942.0, 0.30999
948.0, 0.319478
954.0, 0.325501
960.0, 0.332806
966.0, 0.332078
972.0, 0.34135
978.0, 0.342463
984.0, 0.344922
990.0, 0.345891
996.0, 0.350274
1002.0, 0.341864
1008.0, 0.338631
1014.0, 0.333815
1020.0, 0.326945
1026.0, 0.321639
1032.0, 0.30853
1038.0, 0.292301
1044.0, 0.280682
1050.0, 0.257693
1056.0, 0.240014
1062.0, 0.220762
1068.0, 0.201199
1074.0, 0.183195
1080.0, 0.161421
1086.0, 0.143063
1092.0, 0.122079
1098.0, 0.108964
1104.0, 0.096046
1110.0, 0.080375
1116.0, 0.0692203
1122.0, 0.0569133
1128.0, 0.0534534
1134.0, 0.0456615
1140.0, 0.0395885
1146.0, 0.0298503
1152.0, 0.027947
1158.0, 0.0230731
1164.0, 0.0215632
1170.0, 0.0182012
1176.0, 0.0154076
1182.0, 0.0105189
1188.0, 0.00944814
1194.0, 0.0105334
1200.0, 0.00741825
1206.0, 0.006501
1212.0, 0.00959973
1218.0, 0.00440799
1224.0, 0.00582675
1230.0, 0.00639421
1236.0, 0.00431943
1242.0, 0.00309075
1248.0, 0.00188928
1254.0, 0.00328491
1260.0, 0.00593569
1266.0, 0.00635078
1272.0, 0.00923246
1278.0, 0.00851312
1284.0, 0.015321
1290, 0.0
1296, 0.0
1302, 0.0
1308, 0.0
1314, 0.0
1320, 0.0
1326, 0.0
1332, 0.0
1338, 0.0
1344, 0.0
1350, 0.0
1356, 0.0
1362, 0.0
1368, 0.0
1374, 0.0
1380, 0.0
1386, 0.0
1392, 0.0
1398, 0.0
1404, 0.0
1410, 0.0
1416, 0.0
1422, 0.0
1428, 0.0
1434, 0.0
1440, 0.0
1446, 0.0
1452, 0.0
1458, 0.0
1464, 0.0
1470, 0.0
1476, 0.0
1482, 0.0
1488, 0.0
1494, 0.0
1500, 0.0
1506, 0.0
1512, 0.0
1518, 0.0
1524, 0.0
1530, 0.0
1536, 0.0
1542, 0.0
1548, 0.0
1554, 0.0
1560, 0.0
1566, 0.0
1572, 0.0
1578, 0.0
1584, 0.0
1590, 0.0
1596, 0.0
1599, 0.0