File: raw data/Dataset_2/GlassTb/GlassTb__R110081__Raman__532__0__unoriented__Raman_Data_Processed__35500.txt
30, 0.0
36, 0.0
42, 0.0
48, 0.0
54, 0.0
60, 0.0
66, 0.0
72, 0.0
78, 0.0
84, 0.0
90, 0.0
96.0, 0.0167128
102.0, 0.0147798
108.0, 0.0103551
114.0, 0.00930021
120.0, 0.00699389
126.0, 0.00354794
132.0, 0.000418487
138.0, 0.000553548
144.0, 0.000644814
150.0, 0.0138402
156.0, 0.0573914
162.0, 0.125215
168.0, 0.196535
174.0, 0.273132
180.0, 0.34011
186.0, 0.36627
192.0, 0.378279
198.0, 0.391424
204.0, 0.405989
210.0, 0.412833
216.0, 0.424656
222.0, 0.433495
228.0, 0.442702
234.0, 0.453954
240.0, 0.462434
246.0, 0.471099
252.0, 0.485383
258.0, 0.501066
264.0, 0.51574
270.0, 0.530264
276.0, 0.554727
282.0, 0.577203
288.0, 0.600173
294.0, 0.63746
300.0, 0.676652
306.0, 0.720882
312.0, 0.774256
318.0, 0.824268
324.0, 0.875375
330.0, 0.924032
336.0, 0.967533
342.0, 0.98832
348.0, 0.997869
354.0, 0.99575
360.0, 0.980572
366.0, 0.953191
372.0, 0.916305
378.0, 0.873433
384.0, 0.841747
390.0, 0.813281
396.0, 0.790214
402.0, 0.770473
408.0, 0.755602
414.0, 0.752418
420.0, 0.736759
426.0, 0.730885
432.0, 0.72996
438.0, 0.721687
444.0, 0.719319
450.0, 0.717652
456.0, 0.715269
462.0, 0.716551
468.0, 0.711239
474.0, 0.712263
480.0, 0.707152
486.0, 0.711866
492.0, 0.709325
498.0, 0.714463
504.0, 0.711688
510.0, 0.71414
516.0, 0.710326
522.0, 0.707935
528.0, 0.709357
534.0, 0.702145
540.0, 0.701693
546.0, 0.699499
552.0, 0.700488
558.0, 0.699361
564.0, 0.699361
570.0, 0.695106
576.0, 0.693061
582.0, 0.696166
588.0, 0.685761
594.0, 0.681549
600.0, 0.67253
606.0, 0.661906
612.0, 0.650171
618.0, 0.637823
624.0, 0.621498
630.0, 0.60614
636.0, 0.590201
642.0, 0.573253
648.0, 0.552458
654.0, 0.538082
660.0, 0.516576
666.0, 0.496344
672.0, 0.476183
678.0, 0.457812
684.0, 0.438339
690.0, 0.422693
696.0, 0.408291
702.0, 0.390828
708.0, 0.376562
714.0, 0.364323
720.0, 0.349769
726.0, 0.339788
732.0, 0.329511
738.0, 0.32178
744.0, 0.309988
750.0, 0.304777
756.0, 0.297155
762.0, 0.288378
768.0, 0.281268
774.0, 0.273579
780.0, 0.265692
786.0, 0.26143
792.0, 0.252203
798.0, 0.247396
804.0, 0.240751
810.0, 0.23699
816.0, 0.233386
822.0, 0.229701
828.0, 0.226232
834.0, 0.22593
840.0, 0.227178
846.0, 0.229968
852.0, 0.234756
858.0, 0.241792
864.0, 0.247603
870.0, 0.25303
876.0, 0.260029
882.0, 0.265983
888.0, 0.270279
894.0, 0.279877
900.0, 0.284245
906.0, 0.29239
912.0, 0.294803
918.0, 0.301901
924.0, 0.306875
930.0, 0.311797
936.0, 0.313254
942.0, 0.317789
948.0, 0.322142
954.0, 0.324573
960.0, 0.323944
966.0, 0.328707
972.0, 0.327587
978.0, 0.328626
984.0, 0.327233
990.0, 0.329695
996.0, 0.327377
1002.0, 0.32743
1008.0, 0.325674
1014.0, 0.321134
1020.0, 0.319732
1026.0, 0.313335
1032.0, 0.307531
1038.0, 0.302776
1044.0, 0.292501
1050.0, 0.284687
1056.0, 0.278294
1062.0, 0.268332
1068.0, 0.257339
1074.0, 0.247799
1080.0, 0.238788
1086.0, 0.228326
1092.0, 0.221792
1098.0, 0.213913
1104.0, 0.205642
1110.0, 0.20091
1116.0, 0.194615
1122.0, 0.18894
1128.0, 0.182282
1134.0, 0.177292
1140.0, 0.174639
1146.0, 0.172102
1152.0, 0.169943
1158.0, 0.164247
1164.0, 0.165035
1170.0, 0.159256
1176.0, 0.159923
1182.0, 0.156588
1188.0, 0.153295
1194.0, 0.153848
1200.0, 0.151652
1206.0, 0.150099
1212.0, 0.149939
1218.0, 0.148877
1224.0, 0.147672
1230.0, 0.146662
1236.0, 0.145423
1242.0, 0.144866
1248.0, 0.142696
1254.0, 0.143846
1260.0, 0.142462
1266.0, 0.142679
1272.0, 0.141818
1278.0, 0.143066
1284.0, 0.142581
1290.0, 0.143293
1296.0, 0.141179
1302.0, 0.14108
1308, 0.0
1314, 0.0
1320, 0.0
1326, 0.0
1332, 0.0
1338, 0.0
1344, 0.0
1350, 0.0
1356, 0.0
1362, 0.0
1368, 0.0
1374, 0.0
1380, 0.0
1386, 0.0
1392, 0.0
1398, 0.0
1404, 0.0
1410, 0.0
1416, 0.0
1422, 0.0
1428, 0.0
1434, 0.0
1440, 0.0
1446, 0.0
1452, 0.0
1458, 0.0
1464, 0.0
1470, 0.0
1476, 0.0
1482, 0.0
1488, 0.0
1494, 0.0
1500, 0.0
1506, 0.0
1512, 0.0
1518, 0.0
1524, 0.0
1530, 0.0
1536, 0.0
1542, 0.0
1548, 0.0
1554, 0.0
1560, 0.0
1566, 0.0
1572, 0.0
1578, 0.0
1584, 0.0
1590, 0.0
1596, 0.0
1599, 0.0