File: raw data/Dataset_2/GlassEr/GlassEr__R110084__Raman__780__0__unoriented__Raman_Data_Processed__35508.txt
30, 0.0
36, 0.0
42, 0.0
48, 0.0
54, 0.0
60, 0.0
66, 0.0
72, 0.0
78, 0.0
84, 0.0
90, 0.0
96.0, 0.902703
102.0, 0.869734
108.0, 0.865621
114.0, 0.858989
120.0, 0.855202
126.0, 0.84986
132.0, 0.839931
138.0, 0.837674
144.0, 0.840848
150.0, 0.83915
156.0, 0.840731
162.0, 0.837125
168.0, 0.840614
174.0, 0.836528
180.0, 0.839304
186.0, 0.842792
192.0, 0.840563
198.0, 0.844957
204.0, 0.846321
210.0, 0.852574
216.0, 0.855574
222.0, 0.859751
228.0, 0.858907
234.0, 0.868524
240.0, 0.87275
246.0, 0.880492
252.0, 0.882218
258.0, 0.884203
264.0, 0.894892
270.0, 0.898773
276.0, 0.90707
282.0, 0.914091
288.0, 0.919296
294.0, 0.930182
300.0, 0.943399
306.0, 0.952545
312.0, 0.971324
318.0, 0.975189
324.0, 0.985297
330.0, 0.989799
336.0, 0.99271
342.0, 0.995871
348.0, 0.995516
354.0, 0.99248
360.0, 0.991446
366.0, 0.993724
372.0, 0.994684
378.0, 0.987838
384.0, 0.981172
390.0, 0.973418
396.0, 0.967581
402.0, 0.958881
408.0, 0.951754
414.0, 0.946734
420.0, 0.943662
426.0, 0.940068
432.0, 0.93665
438.0, 0.928966
444.0, 0.924939
450.0, 0.915092
456.0, 0.91048
462.0, 0.904531
468.0, 0.891437
474.0, 0.881201
480.0, 0.867636
486.0, 0.858214
492.0, 0.851045
498.0, 0.84027
504.0, 0.828922
510.0, 0.822063
516.0, 0.80869
522.0, 0.787958
528.0, 0.772366
534.0, 0.752415
540.0, 0.740538
546.0, 0.726299
552.0, 0.711192
558.0, 0.700796
564.0, 0.69222
570.0, 0.678999
576.0, 0.661618
582.0, 0.641754
588.0, 0.618299
594.0, 0.600032
600.0, 0.576336
606.0, 0.556807
612.0, 0.540291
618.0, 0.525827
624.0, 0.513581
630.0, 0.507985
636.0, 0.496354
642.0, 0.48914
648.0, 0.48133
654.0, 0.471551
660.0, 0.462419
666.0, 0.446249
672.0, 0.435249
678.0, 0.416774
684.0, 0.40035
690.0, 0.383661
696.0, 0.366062
702.0, 0.353555
708.0, 0.340491
714.0, 0.325302
720.0, 0.313281
726.0, 0.301492
732.0, 0.287553
738.0, 0.275998
744.0, 0.259634
750.0, 0.246744
756.0, 0.237972
762.0, 0.227217
768.0, 0.216997
774.0, 0.20441
780.0, 0.194085
786.0, 0.179626
792.0, 0.170729
798.0, 0.160959
804.0, 0.149331
810.0, 0.14021
816.0, 0.135269
822.0, 0.129002
828.0, 0.130903
834.0, 0.130913
840.0, 0.139793
846.0, 0.149322
852.0, 0.162514
858.0, 0.176735
864.0, 0.190124
870.0, 0.207217
876.0, 0.22019
882.0, 0.235345
888.0, 0.249885
894.0, 0.260875
900.0, 0.276542
906.0, 0.288549
912.0, 0.297818
918.0, 0.317154
924.0, 0.324874
930.0, 0.33726
936.0, 0.353134
942.0, 0.362937
948.0, 0.378433
954.0, 0.399319
960.0, 0.421899
966.0, 0.434674
972.0, 0.458165
978.0, 0.474476
984.0, 0.489948
990.0, 0.496168
996.0, 0.500874
1002.0, 0.497793
1008.0, 0.49158
1014.0, 0.484548
1020.0, 0.468939
1026.0, 0.461754
1032.0, 0.446686
1038.0, 0.433389
1044.0, 0.415831
1050.0, 0.3932
1056.0, 0.372464
1062.0, 0.346368
1068.0, 0.323443
1074.0, 0.296508
1080.0, 0.270974
1086.0, 0.246057
1092.0, 0.222594
1098.0, 0.20231
1104.0, 0.180985
1110.0, 0.161789
1116.0, 0.144864
1122.0, 0.12824
1128.0, 0.115057
1134.0, 0.105882
1140.0, 0.0970541
1146.0, 0.0851551
1152.0, 0.0786477
1158.0, 0.0740418
1164.0, 0.0670168
1170.0, 0.0627168
1176.0, 0.0589982
1182.0, 0.0516265
1188.0, 0.051147
1194.0, 0.0481557
1200.0, 0.042226
1206.0, 0.0409214
1212.0, 0.0421486
1218.0, 0.0361539
1224.0, 0.0308448
1230.0, 0.0325605
1236.0, 0.0290544
1242.0, 0.0221992
1248.0, 0.0199176
1254.0, 0.0174105
1260.0, 0.0139204
1266.0, 0.0133327
1272.0, 0.0106662
1278.0, 0.0063246
1284.0, 0.00318076
1290, 0.0
1296, 0.0
1302, 0.0
1308, 0.0
1314, 0.0
1320, 0.0
1326, 0.0
1332, 0.0
1338, 0.0
1344, 0.0
1350, 0.0
1356, 0.0
1362, 0.0
1368, 0.0
1374, 0.0
1380, 0.0
1386, 0.0
1392, 0.0
1398, 0.0
1404, 0.0
1410, 0.0
1416, 0.0
1422, 0.0
1428, 0.0
1434, 0.0
1440, 0.0
1446, 0.0
1452, 0.0
1458, 0.0
1464, 0.0
1470, 0.0
1476, 0.0
1482, 0.0
1488, 0.0
1494, 0.0
1500, 0.0
1506, 0.0
1512, 0.0
1518, 0.0
1524, 0.0
1530, 0.0
1536, 0.0
1542, 0.0
1548, 0.0
1554, 0.0
1560, 0.0
1566, 0.0
1572, 0.0
1578, 0.0
1584, 0.0
1590, 0.0
1596, 0.0
1599, 0.0