File: raw data/Dataset_2/GlassEr/GlassEr__R110084__Raman__532__0__unoriented__Raman_Data_Processed__35507.txt
30, 0.0
36, 0.0
42, 0.0
48, 0.0
54, 0.0
60, 0.0
66, 0.0
72, 0.0
78, 0.0
84, 0.0
90, 0.0
96, 0.0
102, 0.0
108, 0.0
114, 0.0
120, 0.0
126, 0.0
132, 0.0
138, 0.0
144, 0.0
150, 0.0
156, 0.0
162, 0.0
168, 0.0
174, 0.0
180.0, 0.159506
186.0, 0.166378
192.0, 0.169006
198.0, 0.173799
204.0, 0.175372
210.0, 0.176952
216.0, 0.180633
222.0, 0.185808
228.0, 0.190981
234.0, 0.199123
240.0, 0.207042
246.0, 0.217362
252.0, 0.230494
258.0, 0.245647
264.0, 0.261428
270.0, 0.2803
276.0, 0.303122
282.0, 0.32448
288.0, 0.345266
294.0, 0.3721
300.0, 0.400047
306.0, 0.427372
312.0, 0.454902
318.0, 0.483449
324.0, 0.508039
330.0, 0.534016
336.0, 0.562348
342.0, 0.585367
348.0, 0.606081
354.0, 0.630655
360.0, 0.651036
366.0, 0.668775
372.0, 0.684332
378.0, 0.699617
384.0, 0.71352
390.0, 0.728396
396.0, 0.740182
402.0, 0.754928
408.0, 0.770444
414.0, 0.786639
420.0, 0.797732
426.0, 0.813115
432.0, 0.828947
438.0, 0.842718
444.0, 0.856831
450.0, 0.871866
456.0, 0.881767
462.0, 0.896962
468.0, 0.906993
474.0, 0.921982
480.0, 0.935559
486.0, 0.95027
492.0, 0.962464
498.0, 0.975832
504.0, 0.980946
510.0, 0.989508
516.0, 0.991202
522.0, 0.993848
528.0, 0.999534
534.0, 0.995321
540.0, 0.992575
546.0, 0.987861
552.0, 0.984998
558.0, 0.974108
564.0, 0.962938
570.0, 0.949948
576.0, 0.936706
582.0, 0.922566
588.0, 0.903252
594.0, 0.885203
600.0, 0.863836
606.0, 0.840611
612.0, 0.822881
618.0, 0.803401
624.0, 0.785376
630.0, 0.767525
636.0, 0.756174
642.0, 0.742146
648.0, 0.732361
654.0, 0.724182
660.0, 0.715052
666.0, 0.705474
672.0, 0.696345
678.0, 0.68905
684.0, 0.682962
690.0, 0.674955
696.0, 0.666454
702.0, 0.657176
708.0, 0.65049
714.0, 0.643443
720.0, 0.636647
726.0, 0.635517
732.0, 0.633858
738.0, 0.629246
744.0, 0.626614
750.0, 0.627558
756.0, 0.631533
762.0, 0.629449
768.0, 0.63145
774.0, 0.632409
780.0, 0.633777
786.0, 0.633649
792.0, 0.633949
798.0, 0.632101
804.0, 0.630219
810.0, 0.631352
816.0, 0.629148
822.0, 0.627886
828.0, 0.62014
834.0, 0.616528
840.0, 0.611158
846.0, 0.604824
852.0, 0.597382
858.0, 0.590634
864.0, 0.582388
870.0, 0.572077
876.0, 0.563986
882.0, 0.552205
888.0, 0.543443
894.0, 0.531271
900.0, 0.519293
906.0, 0.509669
912.0, 0.497357
918.0, 0.485983
924.0, 0.47198
930.0, 0.461411
936.0, 0.444357
942.0, 0.431839
948.0, 0.420204
954.0, 0.407376
960.0, 0.393157
966.0, 0.381231
972.0, 0.367002
978.0, 0.353191
984.0, 0.339061
990.0, 0.326094
996.0, 0.312744
1002.0, 0.298931
1008.0, 0.28724
1014.0, 0.273039
1020.0, 0.260948
1026.0, 0.248671
1032.0, 0.236142
1038.0, 0.224164
1044.0, 0.21194
1050.0, 0.201169
1056.0, 0.191134
1062.0, 0.179869
1068.0, 0.169227
1074.0, 0.159414
1080.0, 0.150429
1086.0, 0.14075
1092.0, 0.132169
1098.0, 0.124286
1104.0, 0.116228
1110.0, 0.108467
1116.0, 0.101276
1122.0, 0.094421
1128.0, 0.0880132
1134.0, 0.0808902
1140.0, 0.0755673
1146.0, 0.0701318
1152.0, 0.0643861
1158.0, 0.0595233
1164.0, 0.0549438
1170.0, 0.0506006
1176.0, 0.0461234
1182.0, 0.0426205
1188.0, 0.0386547
1194.0, 0.0352438
1200.0, 0.031651
1206.0, 0.0290102
1212.0, 0.0264413
1218.0, 0.0230992
1224.0, 0.0208554
1230.0, 0.0184651
1236.0, 0.0162007
1242.0, 0.0142198
1248.0, 0.0122392
1254.0, 0.0107754
1260.0, 0.00894148
1266.0, 0.00776075
1272.0, 0.00623542
1278.0, 0.00474415
1284.0, 0.00331992
1290.0, 0.00247092
1296.0, 0.00122682
1302.0, 0.000329192
1308, 0.0
1314, 0.0
1320, 0.0
1326, 0.0
1332, 0.0
1338, 0.0
1344, 0.0
1350, 0.0
1356, 0.0
1362, 0.0
1368, 0.0
1374, 0.0
1380, 0.0
1386, 0.0
1392, 0.0
1398, 0.0
1404, 0.0
1410, 0.0
1416, 0.0
1422, 0.0
1428, 0.0
1434, 0.0
1440, 0.0
1446, 0.0
1452, 0.0
1458, 0.0
1464, 0.0
1470, 0.0
1476, 0.0
1482, 0.0
1488, 0.0
1494, 0.0
1500, 0.0
1506, 0.0
1512, 0.0
1518, 0.0
1524, 0.0
1530, 0.0
1536, 0.0
1542, 0.0
1548, 0.0
1554, 0.0
1560, 0.0
1566, 0.0
1572, 0.0
1578, 0.0
1584, 0.0
1590, 0.0
1596, 0.0
1599, 0.0