File: raw data/Dataset_2/Graphite/Graphite__R050503__Raman__532__0__unoriented__Raman_Data_Processed__32781.txt
30, 0.0
36, 0.0
42, 0.0
48, 0.0
54, 0.0
60, 0.0
66, 0.0
72, 0.0
78, 0.0
84, 0.0
90, 0.0
96, 0.0
102, 0.0
108, 0.0
114, 0.0
120, 0.0
126, 0.0
132, 0.0
138, 0.0
144, 0.0
150, 0.0
156, 0.0
162.0, 0.00739349
168.0, 0.0245462
174.0, 0.00574745
180.0, 0.0153334
186.0, 0.0312375
192.0, 0.0172265
198.0, 0.0340251
204.0, 0.0187813
210.0, 0.0142295
216.0, 0.00087521
222.0, 0.0337582
228.0, 0.0149095
234.0, 0.00157315
240.0, 0.0138493
246.0, 0.0172294
252.0, 0.0258437
258.0, 0.0111101
264.0, 0.0189177
270.0, 0.026244
276.0, 0.0045732
282.0, 0.0163741
288.0, 0.000732174
294.0, 0.0206164
300.0, 0.000532431
306.0, 0.0215945
312.0, 0.0140567
318.0, 0.0104628
324.0, 0.0129393
330.0, 0.0178173
336.0, 0.01026
342.0, 0.0164993
348.0, 0.0153317
354.0, 0.031581
360.0, 0.0266941
366.0, 0.0071145
372.0, 0.0254912
378.0, 0.00794361
384.0, 0.0114218
390.0, 0.00942818
396.0, 0.000924007
402.0, 0.00707598
408.0, 0.00847686
414.0, 0.0095238
420.0, 0.00604143
426.0, 0.0195049
432.0, 0.00785542
438.0, 0.00538244
444.0, 0.0191023
450.0, 0.0131592
456.0, 0.0155355
462.0, 0.0083129
468.0, 0.0161329
474.0, 0.00826233
480.0, 0.0116056
486.0, 0.0210895
492.0, 0.00530727
498.0, 0.0153328
504.0, 0.00825632
510.0, 0.0127206
516.0, 0.00995044
522.0, 0.0026009
528.0, 0.0022392
534.0, 0.0253957
540.0, 0.000323924
546.0, 0.0126601
552.0, 0.0139426
558.0, 0.0095177
564.0, 0.0219115
570.0, 0.0159819
576.0, 0.0232943
582.0, 0.00806559
588.0, 0.0122713
594.0, 0.00186625
600.0, 0.0136704
606.0, 0.0113585
612.0, 0.00233107
618.0, 0.00755272
624.0, 0.00976254
630.0, 0.0108241
636.0, 0.0193733
642.0, 0.0054027
648.0, 0.00551708
654.0, 0.00574048
660.0, 0.0175149
666.0, 0.013917
672.0, 0.00936444
678.0, 0.0116519
684.0, 0.00559714
690.0, 0.00415578
696.0, 0.0229159
702.0, 0.00546009
708.0, 0.0128025
714.0, 0.00170594
720.0, 0.0123626
726.0, 0.00438783
732.0, 0.00381217
738.0, 0.0100164
744.0, 0.00709253
750.0, 0.0130853
756.0, 0.0104378
762.0, 0.013066
768.0, 0.0178211
774.0, 0.00631605
780.0, 0.018966
786.0, 0.00799566
792.0, 0.00245993
798.0, 0.00966138
804.0, 0.00850198
810.0, 0.00618802
816.0, 0.00726974
822.0, 0.0125067
828.0, 0.0157525
834.0, 0.0131932
840.0, 0.0150402
846.0, 0.0184213
852.0, 0.0140023
858.0, 0.0121402
864.0, 0.0254815
870.0, 0.00687865
876.0, 0.00557146
882.0, 0.0137812
888.0, 0.00385959
894.0, 0.0028596
900.0, 0.00867188
906.0, 0.00169125
912.0, 0.00613561
918.0, 0.000673621
924.0, 0.00387166
930.0, 0.00208609
936.0, 0.00713111
942.0, 0.0026891
948.0, 0.000622151
954.0, 0.00947256
960.0, 0.0138357
966.0, 0.00336943
972.0, 0.0151171
978.0, 0.0013768
984.0, 0.00457306
990.0, 0.00965114
996.0, 0.00768829
1002.0, 0.0022768
1008.0, 0.0039773
1014.0, 0.010955
1020.0, 0.0187797
1026.0, 0.0102816
1032.0, 0.0182029
1038.0, 0.01131
1044.0, 0.00302102
1050.0, 0.0193639
1056.0, 0.00872883
1062.0, 0.0109412
1068.0, 0.0117078
1074.0, 0.00793474
1080.0, 0.00634437
1086.0, 0.00434769
1092.0, 0.00816173
1098.0, 0.0112063
1104.0, 0.00628955
1110.0, 0.00300305
1116.0, 0.011642
1122.0, 0.0143058
1128.0, 0.00768158
1134.0, 0.00671544
1140.0, 0.00251093
1146.0, 0.00116933
1152.0, 0.00266212
1158.0, 0.00155591
1164.0, 0.0100572
1170.0, 0.00282181
1176.0, 0.013381
1182.0, 0.0108526
1188.0, 0.00353516
1194.0, 0.00667914
1200.0, 0.0184905
1206.0, 0.00523017
1212.0, 0.018448
1218.0, 0.00255768
1224.0, 0.0155328
1230.0, 0.00857119
1236.0, 0.00460601
1242.0, 0.0142331
1248.0, 0.011426
1254.0, 0.0164447
1260.0, 0.0136661
1266.0, 0.013798
1272.0, 0.0157657
1278.0, 0.00549597
1284.0, 0.00917128
1290.0, 0.0162136
1296.0, 0.000913757
1302.0, 0.0108542
1308.0, 0.0257727
1314.0, 0.00942783
1320.0, 0.00874128
1326.0, 0.0149634
1332.0, 0.0341242
1338.0, 0.0134466
1344.0, 0.0190346
1350.0, 0.0216139
1356.0, 0.0122717
1362.0, 0.00995465
1368.0, 0.0259328
1374.0, 0.0207275
1380.0, 0.0146495
1386.0, 0.0235064
1392.0, 0.00144089
1398.0, 0.00923783
1404.0, 0.0217519
1410.0, 0.00742762
1416.0, 0.0114721
1422.0, 0.0167484
1428.0, 0.00544068
1434.0, 0.0121546
1440.0, 0.00749338
1446.0, 0.016334
1452.0, 0.0121295
1458.0, 0.00571886
1464.0, 0.0059878
1470.0, 0.00171537
1476.0, 0.00536001
1482.0, 0.00921737
1488.0, 0.00323763
1494.0, 0.0124504
1500.0, 0.00708876
1506.0, 0.00628111
1512.0, 0.0142641
1518.0, 0.0056923
1524.0, 0.00445286
1530.0, 0.015191
1536.0, 0.0161726
1542.0, 0.0201114
1548.0, 0.0432142
1554.0, 0.0797521
1560.0, 0.12965
1566.0, 0.270988
1572.0, 0.558325
1578.0, 0.950067
1584.0, 0.817053
1590.0, 0.366258
1596.0, 0.184609
1599.0, 0.121296