File: raw data/Dataset_2/Graphite/Graphite__R090047__Raman__532__0__unoriented__Raman_Data_Processed__32779.txt
30, 0.0
36, 0.0
42, 0.0
48, 0.0
54, 0.0
60, 0.0
66, 0.0
72, 0.0
78, 0.0
84, 0.0
90, 0.0
96, 0.0
102, 0.0
108, 0.0
114, 0.0
120, 0.0
126, 0.0
132, 0.0
138, 0.0
144, 0.0
150, 0.0
156.0, 0.0236838
162.0, 0.0318597
168.0, 0.0205744
174.0, 0.0107861
180.0, 0.0278536
186.0, 0.0228203
192.0, 0.0218582
198.0, 0.0102949
204.0, 0.0104154
210.0, 0.0153313
216.0, 0.0224846
222.0, 0.0076579
228.0, 0.0107932
234.0, 0.00735132
240.0, 0.01002
246.0, 0.0126734
252.0, 0.0138351
258.0, 0.0117677
264.0, 0.0111925
270.0, 0.0186463
276.0, 0.011675
282.0, 0.00195156
288.0, 0.0144382
294.0, 0.0103452
300.0, 0.0143784
306.0, 0.015269
312.0, 0.0145259
318.0, 0.00479474
324.0, 0.00202383
330.0, 0.012551
336.0, 0.0105669
342.0, 0.000697564
348.0, 0.00875831
354.0, 0.00927974
360.0, 0.0108237
366.0, 0.00600277
372.0, 0.00601163
378.0, 0.0072299
384.0, 0.00827192
390.0, 0.00946917
396.0, 0.00757588
402.0, 0.0063269
408.0, 0.0061809
414.0, 0.00876157
420.0, 0.0037917
426.0, 0.00156089
432.0, 0.00254959
438.0, 0.013407
444.0, 0.00466533
450.0, 0.00501433
456.0, 0.00176401
462.0, 0.00727981
468.0, 0.00365102
474.0, 0.0102606
480.0, 0.0122861
486.0, 0.00906937
492.0, 0.0160696
498.0, 0.007409
504.0, 0.0146149
510.0, 0.00711369
516.0, 0.00823566
522.0, 0.0135908
528.0, 0.00307073
534.0, 0.00745272
540.0, 0.0123849
546.0, 0.0158974
552.0, 0.00758502
558.0, 0.0100482
564.0, 0.00665589
570.0, 0.0129321
576.0, 0.00995729
582.0, 0.00639731
588.0, 0.0166382
594.0, 0.00677354
600.0, 0.00935656
606.0, 0.00716155
612.0, 0.0103538
618.0, 0.00306887
624.0, 0.00715325
630.0, 0.0027067
636.0, 0.00131511
642.0, 0.00954207
648.0, 0.00447956
654.0, 0.00657335
660.0, 0.0034849
666.0, 0.00238532
672.0, 0.010368
678.0, 0.00475491
684.0, 0.00892674
690.0, 0.00344734
696.0, 0.00418717
702.0, 0.00516946
708.0, 0.00175905
714.0, 0.00700328
720.0, 0.0028161
726.0, 0.00275401
732.0, 0.00241106
738.0, 0.0051334
744.0, 0.00856386
750.0, 0.00712724
756.0, 0.0028985
762.0, 0.00719308
768.0, 0.00616682
774.0, 0.0097035
780.0, 0.00523496
786.0, 0.00813392
792.0, 0.00797009
798.0, 0.00790982
804.0, 0.00342352
810.0, 0.0142796
816.0, 0.0121112
822.0, 0.0164366
828.0, 0.0129915
834.0, 0.0173674
840.0, 0.0141255
846.0, 0.0199459
852.0, 0.0176009
858.0, 0.0156108
864.0, 0.0168863
870.0, 0.0152576
876.0, 0.0179264
882.0, 0.0110136
888.0, 0.00604312
894.0, 0.00404601
900.0, 0.00222966
906.0, 0.00453846
912.0, 0.00172717
918.0, 0.00277556
924.0, 0.0168959
930.0, 0.00472093
936.0, 0.0138324
942.0, 0.00505651
948.0, 0.0060621
954.0, 0.00750689
960.0, 0.00543677
966.0, 0.00463774
972.0, 0.00710687
978.0, 0.00382167
984.0, 0.00442204
990.0, 0.00417984
996.0, 0.00644391
1002.0, 0.00907582
1008.0, 0.00685952
1014.0, 0.00991238
1020.0, 0.00742281
1026.0, 0.00763423
1032.0, 0.0124229
1038.0, 0.0159821
1044.0, 0.0152241
1050.0, 0.0110712
1056.0, 0.00504457
1062.0, 0.00920923
1068.0, 0.00978744
1074.0, 0.00580539
1080.0, 0.00547856
1086.0, 0.00273923
1092.0, 0.00534447
1098.0, 0.0103505
1104.0, 0.00543804
1110.0, 0.00964339
1116.0, 0.00403299
1122.0, 0.00361238
1128.0, 0.00551728
1134.0, 0.00421544
1140.0, 0.00432688
1146.0, 0.00575701
1152.0, 0.00377697
1158.0, 0.00264187
1164.0, 0.0113247
1170.0, 0.0153299
1176.0, 0.00699819
1182.0, 0.0132863
1188.0, 0.00708567
1194.0, 0.0110739
1200.0, 0.00788577
1206.0, 0.0102102
1212.0, 0.00715939
1218.0, 0.0105229
1224.0, 0.0132421
1230.0, 0.0076212
1236.0, 0.00968708
1242.0, 0.00247009
1248.0, 0.00837238
1254.0, 0.0035507
1260.0, 0.0138327
1266.0, 0.00685931
1272.0, 0.0091895
1278.0, 0.0107661
1284.0, 0.00619999
1290.0, 0.00292172
1296.0, 0.00793335
1302.0, 0.0023022
1308.0, 0.00318564
1314.0, 0.00252407
1320.0, 0.00326834
1326.0, 0.00860237
1332.0, 0.00851994
1338.0, 0.0120836
1344.0, 0.00145061
1350.0, 0.00287135
1356.0, 0.0178017
1362.0, 0.013665
1368.0, 0.00837163
1374.0, 0.00635786
1380.0, 0.0138825
1386.0, 0.0125318
1392.0, 0.0137021
1398.0, 0.00643122
1404.0, 0.0051936
1410.0, 0.00210662
1416.0, 0.00963866
1422.0, 0.0113522
1428.0, 0.00771296
1434.0, 0.00556806
1440.0, 0.00825223
1446.0, 0.0016022
1452.0, 0.0122517
1458.0, 0.00510212
1464.0, 0.0125886
1470.0, 0.00926362
1476.0, 0.00917577
1482.0, 0.00327193
1488.0, 0.00215687
1494.0, 0.0112263
1500.0, 0.0116098
1506.0, 0.00892698
1512.0, 0.00870118
1518.0, 0.00202511
1524.0, 0.00590501
1530.0, 0.00750373
1536.0, 0.0112756
1542.0, 0.0248173
1548.0, 0.0457299
1554.0, 0.0931823
1560.0, 0.138279
1566.0, 0.290805
1572.0, 0.580974
1578.0, 0.944071
1584.0, 0.788915
1590.0, 0.338305
1596.0, 0.149397
1599.0, 0.104004