File: raw data/Dataset_2/GlassCe/GlassCe__R110075__Raman__532__0__unoriented__Raman_Data_Processed__35483.txt
30, 0.0
36, 0.0
42, 0.0
48, 0.0
54, 0.0
60, 0.0
66, 0.0
72, 0.0
78, 0.0
84, 0.0
90, 0.0
96, 0.0
102, 0.0
108, 0.0
114, 0.0
120, 0.0
126, 0.0
132, 0.0
138, 0.0
144, 0.0
150, 0.0
156, 0.0
162, 0.0
168, 0.0
174, 0.0
180, 0.0
186, 0.0
192, 0.0
198, 0.0
204.0, 0.976873
210.0, 0.984625
216.0, 0.958901
222.0, 0.969486
228.0, 0.954857
234.0, 0.931964
240.0, 0.926796
246.0, 0.93288
252.0, 0.92222
258.0, 0.936559
264.0, 0.904771
270.0, 0.920612
276.0, 0.931048
282.0, 0.902716
288.0, 0.912832
294.0, 0.918787
300.0, 0.920262
306.0, 0.931086
312.0, 0.930625
318.0, 0.943824
324.0, 0.954471
330.0, 0.948472
336.0, 0.947101
342.0, 0.955903
348.0, 0.962278
354.0, 0.9607
360.0, 0.975878
366.0, 0.972693
372.0, 0.97708
378.0, 0.973871
384.0, 0.975956
390.0, 0.983307
396.0, 0.976888
402.0, 0.969838
408.0, 0.97768
414.0, 0.986137
420.0, 0.971761
426.0, 0.974679
432.0, 0.986687
438.0, 0.983074
444.0, 0.997959
450.0, 0.991441
456.0, 0.986219
462.0, 0.983058
468.0, 0.976672
474.0, 0.95972
480.0, 0.965777
486.0, 0.957439
492.0, 0.941853
498.0, 0.933765
504.0, 0.934928
510.0, 0.913883
516.0, 0.891737
522.0, 0.85396
528.0, 0.850536
534.0, 0.806065
540.0, 0.780463
546.0, 0.763906
552.0, 0.72794
558.0, 0.707704
564.0, 0.692945
570.0, 0.672873
576.0, 0.662428
582.0, 0.641003
588.0, 0.617117
594.0, 0.609385
600.0, 0.583833
606.0, 0.557116
612.0, 0.540874
618.0, 0.521669
624.0, 0.498955
630.0, 0.486511
636.0, 0.48229
642.0, 0.465303
648.0, 0.456138
654.0, 0.44377
660.0, 0.427515
666.0, 0.413866
672.0, 0.388705
678.0, 0.378858
684.0, 0.361369
690.0, 0.350329
696.0, 0.327948
702.0, 0.312798
708.0, 0.305079
714.0, 0.282362
720.0, 0.273938
726.0, 0.268007
732.0, 0.263816
738.0, 0.255177
744.0, 0.243471
750.0, 0.227947
756.0, 0.231202
762.0, 0.222546
768.0, 0.214282
774.0, 0.211249
780.0, 0.204735
786.0, 0.194108
792.0, 0.18017
798.0, 0.1743
804.0, 0.168364
810.0, 0.159117
816.0, 0.159316
822.0, 0.146413
828.0, 0.137818
834.0, 0.139051
840.0, 0.137107
846.0, 0.156774
852.0, 0.161312
858.0, 0.183979
864.0, 0.204252
870.0, 0.225834
876.0, 0.253534
882.0, 0.270718
888.0, 0.297686
894.0, 0.331119
900.0, 0.353718
906.0, 0.390862
912.0, 0.409486
918.0, 0.437436
924.0, 0.46597
930.0, 0.489616
936.0, 0.499494
942.0, 0.512008
948.0, 0.533938
954.0, 0.556277
960.0, 0.584394
966.0, 0.607455
972.0, 0.615659
978.0, 0.627671
984.0, 0.646141
990.0, 0.664452
996.0, 0.676657
1002.0, 0.689634
1008.0, 0.70629
1014.0, 0.714685
1020.0, 0.712772
1026.0, 0.704817
1032.0, 0.701
1038.0, 0.682663
1044.0, 0.661242
1050.0, 0.642832
1056.0, 0.609902
1062.0, 0.569498
1068.0, 0.523575
1074.0, 0.479167
1080.0, 0.445076
1086.0, 0.407502
1092.0, 0.369709
1098.0, 0.337706
1104.0, 0.294565
1110.0, 0.274737
1116.0, 0.245294
1122.0, 0.221224
1128.0, 0.198358
1134.0, 0.172396
1140.0, 0.160875
1146.0, 0.144973
1152.0, 0.129128
1158.0, 0.114494
1164.0, 0.100642
1170.0, 0.0954394
1176.0, 0.0892133
1182.0, 0.0736741
1188.0, 0.0721381
1194.0, 0.0548165
1200.0, 0.0576813
1206.0, 0.051784
1212.0, 0.0433282
1218.0, 0.0395657
1224.0, 0.0431904
1230.0, 0.0319791
1236.0, 0.0321235
1242.0, 0.0195127
1248.0, 0.02543
1254.0, 0.0186388
1260.0, 0.0265419
1266.0, 0.0235141
1272.0, 0.0198898
1278.0, 0.0248482
1284.0, 0.0163796
1290.0, 0.0134506
1296.0, 0.00871434
1302.0, 0.00384384
1308, 0.0
1314, 0.0
1320, 0.0
1326, 0.0
1332, 0.0
1338, 0.0
1344, 0.0
1350, 0.0
1356, 0.0
1362, 0.0
1368, 0.0
1374, 0.0
1380, 0.0
1386, 0.0
1392, 0.0
1398, 0.0
1404, 0.0
1410, 0.0
1416, 0.0
1422, 0.0
1428, 0.0
1434, 0.0
1440, 0.0
1446, 0.0
1452, 0.0
1458, 0.0
1464, 0.0
1470, 0.0
1476, 0.0
1482, 0.0
1488, 0.0
1494, 0.0
1500, 0.0
1506, 0.0
1512, 0.0
1518, 0.0
1524, 0.0
1530, 0.0
1536, 0.0
1542, 0.0
1548, 0.0
1554, 0.0
1560, 0.0
1566, 0.0
1572, 0.0
1578, 0.0
1584, 0.0
1590, 0.0
1596, 0.0
1599, 0.0