File: raw data/Dataset_2/GlassCe/GlassCe__R110075__Raman__780__0__unoriented__Raman_Data_Processed__35484.txt
30, 0.0
36, 0.0
42, 0.0
48, 0.0
54, 0.0
60, 0.0
66, 0.0
72, 0.0
78, 0.0
84, 0.0
90, 0.0
96, 0.0
102, 0.0
108, 0.0
114, 0.0
120, 0.0
126, 0.0
132, 0.0
138, 0.0
144, 0.0
150.0, 0.0482568
156.0, 0.0496927
162.0, 0.0511824
168.0, 0.0509105
174.0, 0.0518712
180.0, 0.0545344
186.0, 0.0538355
192.0, 0.057105
198.0, 0.0593456
204.0, 0.0597085
210.0, 0.0631829
216.0, 0.0651706
222.0, 0.0692481
228.0, 0.0701098
234.0, 0.0730481
240.0, 0.0734644
246.0, 0.0768721
252.0, 0.0793278
258.0, 0.0814635
264.0, 0.0839213
270.0, 0.0880299
276.0, 0.0893875
282.0, 0.0916019
288.0, 0.0943127
294.0, 0.0973027
300.0, 0.0989486
306.0, 0.102625
312.0, 0.106028
318.0, 0.107102
324.0, 0.113333
330.0, 0.115965
336.0, 0.122548
342.0, 0.127548
348.0, 0.135898
354.0, 0.143285
360.0, 0.151538
366.0, 0.162992
372.0, 0.173204
378.0, 0.184108
384.0, 0.195733
390.0, 0.20705
396.0, 0.215791
402.0, 0.224834
408.0, 0.232512
414.0, 0.238765
420.0, 0.241889
426.0, 0.244196
432.0, 0.243521
438.0, 0.241572
444.0, 0.238981
450.0, 0.233894
456.0, 0.230513
462.0, 0.223517
468.0, 0.218187
474.0, 0.212413
480.0, 0.205197
486.0, 0.20034
492.0, 0.195411
498.0, 0.191512
504.0, 0.187248
510.0, 0.183706
516.0, 0.180316
522.0, 0.171716
528.0, 0.169513
534.0, 0.162376
540.0, 0.158371
546.0, 0.15191
552.0, 0.147452
558.0, 0.142873
564.0, 0.139452
570.0, 0.137707
576.0, 0.131459
582.0, 0.128378
588.0, 0.123346
594.0, 0.121883
600.0, 0.115386
606.0, 0.11247
612.0, 0.108056
618.0, 0.102553
624.0, 0.100079
630.0, 0.097629
636.0, 0.0956549
642.0, 0.0895836
648.0, 0.0897358
654.0, 0.0854603
660.0, 0.0815134
666.0, 0.0766759
672.0, 0.0728993
678.0, 0.0694913
684.0, 0.0653019
690.0, 0.0617328
696.0, 0.0597228
702.0, 0.054105
708.0, 0.0530987
714.0, 0.0507211
720.0, 0.0473152
726.0, 0.0440716
732.0, 0.0422639
738.0, 0.0398447
744.0, 0.0373143
750.0, 0.0347346
756.0, 0.0324235
762.0, 0.0302412
768.0, 0.0276068
774.0, 0.0256005
780.0, 0.0237782
786.0, 0.0212945
792.0, 0.0193514
798.0, 0.0168664
804.0, 0.0126637
810.0, 0.0114986
816.0, 0.00912763
822.0, 0.0057698
828.0, 0.00547454
834.0, 0.00186133
840.0, 0.00253715
846.0, 2.19157e-05
852.0, 0.00164576
858.0, 0.00193051
864.0, 0.00182426
870.0, 0.00320949
876.0, 0.00394073
882.0, 0.00476543
888.0, 0.00734138
894.0, 0.00918117
900.0, 0.0105463
906.0, 0.0117645
912.0, 0.0144712
918.0, 0.0170731
924.0, 0.0181783
930.0, 0.0207314
936.0, 0.0203881
942.0, 0.0241856
948.0, 0.0246699
954.0, 0.0270689
960.0, 0.0289821
966.0, 0.0302141
972.0, 0.0323407
978.0, 0.0338214
984.0, 0.0382144
990.0, 0.0398996
996.0, 0.0423348
1002.0, 0.0456454
1008.0, 0.0479425
1014.0, 0.0526144
1020.0, 0.0550625
1026.0, 0.0597485
1032.0, 0.0627115
1038.0, 0.0667055
1044.0, 0.0711106
1050.0, 0.0755917
1056.0, 0.0804615
1062.0, 0.0865218
1068.0, 0.0927032
1074.0, 0.0993784
1080.0, 0.109644
1086.0, 0.120402
1092.0, 0.132267
1098.0, 0.144562
1104.0, 0.160535
1110.0, 0.176478
1116.0, 0.195451
1122.0, 0.215348
1128.0, 0.238631
1134.0, 0.263253
1140.0, 0.291416
1146.0, 0.319475
1152.0, 0.347616
1158.0, 0.382035
1164.0, 0.413617
1170.0, 0.449279
1176.0, 0.48578
1182.0, 0.52113
1188.0, 0.558262
1194.0, 0.592633
1200.0, 0.626925
1206.0, 0.662797
1212.0, 0.695511
1218.0, 0.72918
1224.0, 0.755359
1230.0, 0.7861
1236.0, 0.809448
1242.0, 0.83203
1248.0, 0.855975
1254.0, 0.875513
1260.0, 0.898348
1266.0, 0.918036
1272.0, 0.9418
1278.0, 0.967476
1284.0, 0.995398
1290, 0.0
1296, 0.0
1302, 0.0
1308, 0.0
1314, 0.0
1320, 0.0
1326, 0.0
1332, 0.0
1338, 0.0
1344, 0.0
1350, 0.0
1356, 0.0
1362, 0.0
1368, 0.0
1374, 0.0
1380, 0.0
1386, 0.0
1392, 0.0
1398, 0.0
1404, 0.0
1410, 0.0
1416, 0.0
1422, 0.0
1428, 0.0
1434, 0.0
1440, 0.0
1446, 0.0
1452, 0.0
1458, 0.0
1464, 0.0
1470, 0.0
1476, 0.0
1482, 0.0
1488, 0.0
1494, 0.0
1500, 0.0
1506, 0.0
1512, 0.0
1518, 0.0
1524, 0.0
1530, 0.0
1536, 0.0
1542, 0.0
1548, 0.0
1554, 0.0
1560, 0.0
1566, 0.0
1572, 0.0
1578, 0.0
1584, 0.0
1590, 0.0
1596, 0.0
1599, 0.0