File: raw data/Dataset_2/Ferrosilite/Ferrosilite__R070387__Raman__532__0__unoriented__Raman_Data_Processed__22235.txt
30, 0.0
36, 0.0
42, 0.0
48, 0.0
54, 0.0
60, 0.0
66, 0.0
72, 0.0
78, 0.0
84, 0.0
90, 0.0
96, 0.0
102, 0.0
108, 0.0
114, 0.0
120, 0.0
126, 0.0
132, 0.0
138, 0.0
144, 0.0
150, 0.0
156, 0.0
162, 0.0
168, 0.0
174, 0.0
180, 0.0
186.0, 0.00606948
192.0, 0.00201108
198.0, 0.00634552
204.0, 0.0279682
210.0, 0.0545327
216.0, 0.0811325
222.0, 0.094577
228.0, 0.0883026
234.0, 0.0381586
240.0, 0.0139623
246.0, 0.00927801
252.0, 0.0100292
258.0, 0.0141089
264.0, 0.010363
270.0, 0.00103054
276.0, 0.00992266
282.0, 0.0246042
288.0, 0.0166728
294.0, 0.0177681
300.0, 0.0418698
306.0, 0.082123
312.0, 0.20465
318.0, 0.358818
324.0, 0.587749
330.0, 0.657389
336.0, 0.426881
342.0, 0.210684
348.0, 0.11799
354.0, 0.0744177
360.0, 0.0859264
366.0, 0.116818
372.0, 0.211355
378.0, 0.369798
384.0, 0.456261
390.0, 0.245193
396.0, 0.0705773
402.0, 0.0277371
408.0, 0.0312294
414.0, 0.0664807
420.0, 0.0667032
426.0, 0.00354932
432.0, 0.0117361
438.0, 0.00587832
444.0, 0.00367916
450.0, 0.0216221
456.0, 0.0171939
462.0, 0.00333457
468.0, 0.0057472
474.0, 0.00799163
480.0, 0.00285223
486.0, 0.0151651
492.0, 0.0131722
498.0, 0.0297574
504.0, 0.0638684
510.0, 0.120433
516.0, 0.134016
522.0, 0.137338
528.0, 0.18126
534.0, 0.174815
540.0, 0.141389
546.0, 0.0780731
552.0, 0.0570102
558.0, 0.0414096
564.0, 0.0244453
570.0, 0.0186116
576.0, 0.0205438
582.0, 0.0126524
588.0, 0.00695581
594.0, 0.00261725
600.0, 0.00429066
606.0, 0.00191796
612.0, 0.000635167
618.0, 0.0130467
624.0, 0.0171965
630.0, 0.0299106
636.0, 0.0522911
642.0, 0.145701
648.0, 0.268817
654.0, 0.363421
660.0, 0.351711
666.0, 0.49071
672.0, 0.537866
678.0, 0.250513
684.0, 0.104724
690.0, 0.0420406
696.0, 0.0281529
702.0, 0.0216457
708.0, 0.00257371
714.0, 0.00119818
720.0, 0.000834998
726.0, 0.0132683
732.0, 0.0206589
738.0, 0.028174
744.0, 0.0208661
750.0, 0.0176657
756.0, 0.00309493
762.0, 0.00224385
768.0, 0.00144025
774.0, 0.00300252
780.0, 0.0056675
786.0, 0.00686661
792.0, 0.0109196
798.0, 0.0173639
804.0, 0.0168486
810.0, 0.0220253
816.0, 0.0159655
822.0, 0.0257921
828.0, 0.0184268
834.0, 0.0135898
840.0, 0.010358
846.0, 0.00523016
852.0, 0.00130497
858.0, 0.000797916
864.0, 0.00134634
870.0, 0.00781562
876.0, 0.0213181
882.0, 0.0356973
888.0, 0.0384111
894.0, 0.0301452
900.0, 0.0103978
906.0, 0.0031654
912.0, 0.0017219
918.0, 0.00148908
924.0, 0.00199156
930.0, 0.0104819
936.0, 0.0372545
942.0, 0.0954803
948.0, 0.15921
954.0, 0.106019
960.0, 0.0235544
966.0, 0.00899282
972.0, 0.0284036
978.0, 0.0834487
984.0, 0.266839
990.0, 0.695144
996.0, 0.995544
1002.0, 0.633383
1008.0, 0.286406
1014.0, 0.135281
1020.0, 0.0727242
1026.0, 0.0536638
1032.0, 0.0359069
1038.0, 0.00654417
1044.0, 0.00695641
1050.0, 0.00451995
1056.0, 0.00732534
1062.0, 0.00268035
1068.0, 0.00264845
1074.0, 0.00623654
1080.0, 0.0117658
1086.0, 0.0102878
1092.0, 0.0177854
1098.0, 0.015903
1104.0, 0.0197125
1110.0, 0.0141719
1116.0, 0.0144715
1122.0, 0.00640909
1128.0, 0.00140502
1134.0, 0.0028153
1140.0, 0.00733157
1146.0, 0.00586742
1152.0, 0.0126423
1158.0, 0.0130521
1164.0, 0.000374003
1170.0, 0.00624897
1176.0, 0.00900292
1182.0, 0.00315984
1188.0, 0.00807153
1194.0, 0.00861108
1200.0, 0.00322578
1206.0, 0.00823723
1212.0, 0.000744693
1218.0, 0.00299639
1224.0, 0.0112893
1230.0, 0.00149278
1236.0, 0.00608571
1242.0, 0.00690435
1248.0, 0.00624379
1254.0, 0.00588017
1260.0, 0.0049832
1266.0, 0.00839179
1272.0, 0.00612647
1278.0, 0.00234622
1284.0, 0.000570527
1290.0, 0.00272849
1296.0, 0.00853564
1302, 0.0
1308, 0.0
1314, 0.0
1320, 0.0
1326, 0.0
1332, 0.0
1338, 0.0
1344, 0.0
1350, 0.0
1356, 0.0
1362, 0.0
1368, 0.0
1374, 0.0
1380, 0.0
1386, 0.0
1392, 0.0
1398, 0.0
1404, 0.0
1410, 0.0
1416, 0.0
1422, 0.0
1428, 0.0
1434, 0.0
1440, 0.0
1446, 0.0
1452, 0.0
1458, 0.0
1464, 0.0
1470, 0.0
1476, 0.0
1482, 0.0
1488, 0.0
1494, 0.0
1500, 0.0
1506, 0.0
1512, 0.0
1518, 0.0
1524, 0.0
1530, 0.0
1536, 0.0
1542, 0.0
1548, 0.0
1554, 0.0
1560, 0.0
1566, 0.0
1572, 0.0
1578, 0.0
1584, 0.0
1590, 0.0
1596, 0.0
1599, 0.0