File: raw data/Dataset_2/Ferrosilite/Ferrosilite__R070386__Raman__532__0__unoriented__Raman_Data_Processed__22223.txt
30, 0.0
36, 0.0
42, 0.0
48, 0.0
54, 0.0
60, 0.0
66, 0.0
72, 0.0
78, 0.0
84, 0.0
90, 0.0
96, 0.0
102, 0.0
108, 0.0
114, 0.0
120, 0.0
126, 0.0
132, 0.0
138, 0.0
144, 0.0
150, 0.0
156, 0.0
162, 0.0
168, 0.0
174, 0.0
180.0, 0.000331237
186.0, 0.0160625
192.0, 0.00859757
198.0, 0.002405
204.0, 0.0102674
210.0, 0.00600065
216.0, 0.00250698
222.0, 0.00882416
228.0, 0.0239241
234.0, 0.0286957
240.0, 0.0473607
246.0, 0.0625544
252.0, 0.0451175
258.0, 0.0289849
264.0, 0.00480815
270.0, 0.0068065
276.0, 0.00757852
282.0, 0.000561883
288.0, 0.0150854
294.0, 0.0491196
300.0, 0.114765
306.0, 0.217209
312.0, 0.269853
318.0, 0.254432
324.0, 0.245342
330.0, 0.212112
336.0, 0.135007
342.0, 0.116014
348.0, 0.141635
354.0, 0.165234
360.0, 0.134023
366.0, 0.0885759
372.0, 0.0685829
378.0, 0.0579053
384.0, 0.042366
390.0, 0.047735
396.0, 0.0487963
402.0, 0.0332338
408.0, 0.00292109
414.0, 0.00216753
420.0, 0.00140528
426.0, 0.00898449
432.0, 0.00646963
438.0, 0.00585778
444.0, 0.00708863
450.0, 0.0121387
456.0, 0.0174844
462.0, 0.00164401
468.0, 0.0190138
474.0, 0.0107039
480.0, 0.0109451
486.0, 0.00912549
492.0, 0.0133248
498.0, 0.0343185
504.0, 0.0462038
510.0, 0.0562401
516.0, 0.0775279
522.0, 0.110011
528.0, 0.088505
534.0, 0.0728024
540.0, 0.0554062
546.0, 0.0533152
552.0, 0.0488299
558.0, 0.0246781
564.0, 0.0115195
570.0, 0.0100815
576.0, 0.00632931
582.0, 0.00645175
588.0, 0.000460609
594.0, 0.00211801
600.0, 0.00270161
606.0, 0.0183902
612.0, 0.0259378
618.0, 0.0271506
624.0, 0.0541683
630.0, 0.117893
636.0, 0.178328
642.0, 0.220114
648.0, 0.279068
654.0, 0.511212
660.0, 0.685612
666.0, 0.473277
672.0, 0.207729
678.0, 0.0860933
684.0, 0.0342268
690.0, 0.0187705
696.0, 0.0134611
702.0, 0.0100571
708.0, 0.000880782
714.0, 0.00188824
720.0, 0.00418793
726.0, 0.0117548
732.0, 0.0184052
738.0, 0.019279
744.0, 0.0150844
750.0, 0.00837149
756.0, 0.00532356
762.0, 0.00584749
768.0, 0.00135555
774.0, 0.00596558
780.0, 0.00883867
786.0, 0.0116838
792.0, 0.0192871
798.0, 0.0286508
804.0, 0.020808
810.0, 0.024943
816.0, 0.0189737
822.0, 0.0232395
828.0, 0.012508
834.0, 0.0123075
840.0, 0.0100492
846.0, 0.00745524
852.0, 0.00251731
858.0, 0.00546877
864.0, 0.0021738
870.0, 0.00338636
876.0, 0.00327617
882.0, 0.0167864
888.0, 0.0219496
894.0, 0.0197463
900.0, 0.0120398
906.0, 0.0123228
912.0, 0.0215457
918.0, 0.0203243
924.0, 0.000793558
930.0, 0.00748097
936.0, 0.0189292
942.0, 0.0543678
948.0, 0.095154
954.0, 0.0854287
960.0, 0.0479782
966.0, 0.0669117
972.0, 0.12867
978.0, 0.295417
984.0, 0.649882
990.0, 0.996784
996.0, 0.754509
1002.0, 0.334775
1008.0, 0.146545
1014.0, 0.0652807
1020.0, 0.0306161
1026.0, 0.0187571
1032.0, 0.00250791
1038.0, 0.00451683
1044.0, 0.00480491
1050.0, 0.000835613
1056.0, 0.000195573
1062.0, 0.0122892
1068.0, 0.00505173
1074.0, 0.0104717
1080.0, 0.00764762
1086.0, 0.010679
1092.0, 0.0164417
1098.0, 0.0140712
1104.0, 0.0162585
1110.0, 0.00964682
1116.0, 0.00787475
1122.0, 0.000928906
1128.0, 0.00248978
1134.0, 0.00798416
1140.0, 0.0137433
1146.0, 0.00119882
1152.0, 0.0114053
1158.0, 0.0138741
1164.0, 0.00330027
1170.0, 0.00620677
1176.0, 0.0070356
1182.0, 0.0124124
1188.0, 0.00652009
1194.0, 0.0127453
1200.0, 0.00137977
1206.0, 0.00584997
1212.0, 0.00142519
1218.0, 0.0081307
1224.0, 0.0120677
1230.0, 0.00317403
1236.0, 0.00677795
1242.0, 0.0053753
1248.0, 0.0047915
1254.0, 0.00469126
1260.0, 0.0046795
1266.0, 0.0065243
1272.0, 0.00931697
1278.0, 0.0110911
1284.0, 0.00199389
1290, 0.0
1296, 0.0
1302, 0.0
1308, 0.0
1314, 0.0
1320, 0.0
1326, 0.0
1332, 0.0
1338, 0.0
1344, 0.0
1350, 0.0
1356, 0.0
1362, 0.0
1368, 0.0
1374, 0.0
1380, 0.0
1386, 0.0
1392, 0.0
1398, 0.0
1404, 0.0
1410, 0.0
1416, 0.0
1422, 0.0
1428, 0.0
1434, 0.0
1440, 0.0
1446, 0.0
1452, 0.0
1458, 0.0
1464, 0.0
1470, 0.0
1476, 0.0
1482, 0.0
1488, 0.0
1494, 0.0
1500, 0.0
1506, 0.0
1512, 0.0
1518, 0.0
1524, 0.0
1530, 0.0
1536, 0.0
1542, 0.0
1548, 0.0
1554, 0.0
1560, 0.0
1566, 0.0
1572, 0.0
1578, 0.0
1584, 0.0
1590, 0.0
1596, 0.0
1599, 0.0