File: raw data/Dataset_2/Ferrosilite/Ferrosilite__R070387__Raman__785__0__unoriented__Raman_Data_Processed__22237.txt
30, 0.0
36, 0.0
42, 0.0
48, 0.0
54, 0.0
60, 0.0
66, 0.0
72, 0.0
78, 0.0
84, 0.0
90, 0.0
96, 0.0
102, 0.0
108, 0.0
114, 0.0
120, 0.0
126, 0.0
132, 0.0
138, 0.0
144, 0.0
150, 0.0
156, 0.0
162, 0.0
168, 0.0
174, 0.0
180, 0.0
186, 0.0
192, 0.0
198, 0.0
204.0, 0.00122253
210.0, 0.0629653
216.0, 0.109006
222.0, 0.142738
228.0, 0.0938752
234.0, 0.0561819
240.0, 0.0533802
246.0, 0.0165599
252.0, 0.0490183
258.0, 0.0202926
264.0, 0.000720113
270.0, 0.0189484
276.0, 0.0164442
282.0, 0.0432237
288.0, 0.0279289
294.0, 0.0275535
300.0, 0.0588828
306.0, 0.15552
312.0, 0.338623
318.0, 0.594983
324.0, 0.877584
330.0, 0.982909
336.0, 0.658898
342.0, 0.350201
348.0, 0.180409
354.0, 0.11089
360.0, 0.0807067
366.0, 0.0844476
372.0, 0.114836
378.0, 0.153229
384.0, 0.135659
390.0, 0.05234
396.0, 0.0151435
402.0, 0.00424876
408.0, 0.0218491
414.0, 0.0752161
420.0, 0.0985694
426.0, 0.0181629
432.0, 0.00294058
438.0, 0.00112378
444.0, 0.00644805
450.0, 0.0403133
456.0, 0.0124939
462.0, 0.00323715
468.0, 0.000904403
474.0, 0.00517372
480.0, 0.0174828
486.0, 0.00672572
492.0, 0.0286752
498.0, 0.0427165
504.0, 0.060491
510.0, 0.106922
516.0, 0.137079
522.0, 0.162726
528.0, 0.19584
534.0, 0.164692
540.0, 0.13936
546.0, 0.0970772
552.0, 0.0838639
558.0, 0.0802557
564.0, 0.0775649
570.0, 0.0554979
576.0, 0.0476092
582.0, 0.0440745
588.0, 0.0303069
594.0, 0.0102035
600.0, 0.00357561
606.0, 0.00241654
612.0, 0.0017794
618.0, 0.0123224
624.0, 0.0230002
630.0, 0.0519944
636.0, 0.12824
642.0, 0.244289
648.0, 0.486363
654.0, 0.66675
660.0, 0.630067
666.0, 0.85195
672.0, 0.914985
678.0, 0.454823
684.0, 0.176069
690.0, 0.084023
696.0, 0.0459598
702.0, 0.00974154
708.0, 0.00980831
714.0, 0.00142658
720.0, 0.000511369
726.0, 0.0190826
732.0, 0.00794527
738.0, 0.0175935
744.0, 0.0110072
750.0, 0.0108952
756.0, 0.00242472
762.0, 0.00743122
768.0, 0.0030233
774.0, 0.00238074
780.0, 0.00116442
786.0, 0.00547235
792.0, 0.0057123
798.0, 0.0088686
804.0, 0.022957
810.0, 0.0222388
816.0, 0.0216404
822.0, 0.0174618
828.0, 0.0223664
834.0, 0.0132779
840.0, 0.00465127
846.0, 0.00999596
852.0, 0.00175518
858.0, 0.0125444
864.0, 0.00267231
870.0, 0.0174616
876.0, 0.0369951
882.0, 0.0468066
888.0, 0.030614
894.0, 0.0331012
900.0, 0.0150097
906.0, 0.00998382
912.0, 0.00899282
918.0, 0.000829445
924.0, 0.0050733
930.0, 0.0100261
936.0, 0.0175134
942.0, 0.0406435
948.0, 0.0615101
954.0, 0.0494958
960.0, 0.0123595
966.0, 0.00475741
972.0, 0.0200468
978.0, 0.0562562
984.0, 0.179195
990.0, 0.42743
996.0, 0.576986
1002.0, 0.36994
1008.0, 0.18572
1014.0, 0.0943299
1020.0, 0.0384298
1026.0, 0.0285459
1032.0, 0.0245653
1038.0, 0.00135694
1044.0, 0.00551123
1050.0, 0.00448438
1056.0, 0.00673787
1062.0, 0.00462498
1068.0, 0.00493275
1074.0, 0.00832519
1080.0, 0.0192056
1086.0, 0.00319684
1092.0, 0.00984369
1098.0, 0.0126465
1104.0, 0.0129282
1110.0, 0.00931174
1116.0, 0.0150293
1122.0, 0.0091788
1128.0, 0.022951
1134.0, 0.0115758
1140.0, 0.0052648
1146.0, 0.0133378
1152.0, 0.00860703
1158.0, 0.00585807
1164.0, 0.0071502
1170.0, 0.001762
1176.0, 0.00488409
1182.0, 0.00813715
1188.0, 0.00911182
1194.0, 0.00140503
1200.0, 0.00728851
1206.0, 0.0111404
1212.0, 0.0109807
1218.0, 0.00185201
1224.0, 0.0085402
1230.0, 0.0196567
1236.0, 0.000952542
1242.0, 0.0133785
1248.0, 0.00242907
1254.0, 0.0159255
1260, 0.0
1266, 0.0
1272, 0.0
1278, 0.0
1284, 0.0
1290, 0.0
1296, 0.0
1302, 0.0
1308, 0.0
1314, 0.0
1320, 0.0
1326, 0.0
1332, 0.0
1338, 0.0
1344, 0.0
1350, 0.0
1356, 0.0
1362, 0.0
1368, 0.0
1374, 0.0
1380, 0.0
1386, 0.0
1392, 0.0
1398, 0.0
1404, 0.0
1410, 0.0
1416, 0.0
1422, 0.0
1428, 0.0
1434, 0.0
1440, 0.0
1446, 0.0
1452, 0.0
1458, 0.0
1464, 0.0
1470, 0.0
1476, 0.0
1482, 0.0
1488, 0.0
1494, 0.0
1500, 0.0
1506, 0.0
1512, 0.0
1518, 0.0
1524, 0.0
1530, 0.0
1536, 0.0
1542, 0.0
1548, 0.0
1554, 0.0
1560, 0.0
1566, 0.0
1572, 0.0
1578, 0.0
1584, 0.0
1590, 0.0
1596, 0.0
1599, 0.0