File: raw data/Dataset_2/Ferroactinolite/Ferroactinolite__R060189-3__Raman__514__45__ccw__Raman_Data_Processed__13252.txt
30, 0.0
36, 0.0
42, 0.0
48, 0.0
54, 0.0
60, 0.0
66, 0.0
72, 0.0
78, 0.0
84, 0.0
90, 0.0
96.0, 0.000119603
102.0, 0.00179933
108.0, 0.0314567
114.0, 0.0166969
120.0, 0.0103038
126.0, 0.0120497
132.0, 0.0312316
138.0, 0.0621264
144.0, 0.251825
150.0, 0.353662
156.0, 0.106096
162.0, 0.0836209
168.0, 0.216975
174.0, 0.328331
180.0, 0.134648
186.0, 0.0766802
192.0, 0.0862716
198.0, 0.1208
204.0, 0.186799
210.0, 0.271765
216.0, 0.407247
222.0, 0.364562
228.0, 0.198179
234.0, 0.0962448
240.0, 0.0571604
246.0, 0.038621
252.0, 0.0296041
258.0, 0.0244544
264.0, 0.0216983
270.0, 0.0192683
276.0, 0.0248806
282.0, 0.0294907
288.0, 0.0309195
294.0, 0.0291122
300.0, 0.019469
306.0, 0.0171477
312.0, 0.0165416
318.0, 0.0222501
324.0, 0.0302734
330.0, 0.0339831
336.0, 0.0420583
342.0, 0.0540339
348.0, 0.0636782
354.0, 0.0763173
360.0, 0.0747117
366.0, 0.0555468
372.0, 0.0451279
378.0, 0.0497503
384.0, 0.0470533
390.0, 0.0348737
396.0, 0.0189375
402.0, 0.0121402
408.0, 0.0060547
414.0, 0.0011531
420.0, 0.000313459
426.0, 0.00396976
432.0, 0.00807262
438.0, 0.00122699
444.0, 0.00322252
450.0, 0.00406124
456.0, 0.00321488
462.0, 0.00111118
468.0, 0.00254077
474.0, 0.000989311
480.0, 0.00117806
486.0, 0.00399399
492.0, 0.00847066
498.0, 0.0139682
504.0, 0.0208412
510.0, 0.0276259
516.0, 0.0336705
522.0, 0.046968
528.0, 0.0438326
534.0, 0.03625
540.0, 0.0323546
546.0, 0.0250988
552.0, 0.0218378
558.0, 0.0197931
564.0, 0.0172745
570.0, 0.0171886
576.0, 0.0126869
582.0, 0.00835272
588.0, 0.00476221
594.0, 0.00441901
600.0, 0.00769334
606.0, 0.0107295
612.0, 0.0141443
618.0, 0.0241684
624.0, 0.0356318
630.0, 0.0549561
636.0, 0.0869589
642.0, 0.127675
648.0, 0.196046
654.0, 0.348656
660.0, 0.706996
666.0, 0.99798
672.0, 0.55922
678.0, 0.237467
684.0, 0.123441
690.0, 0.0707639
696.0, 0.0431688
702.0, 0.027363
708.0, 0.0193121
714.0, 0.0161939
720.0, 0.0148882
726.0, 0.0148106
732.0, 0.017058
738.0, 0.0176751
744.0, 0.0147148
750.0, 0.0117224
756.0, 0.00789398
762.0, 0.00580901
768.0, 0.00665577
774.0, 0.00261851
780.0, 0.00103809
786.0, 0.000994354
792.0, 0.00335116
798.0, 0.000149927
804.0, 0.00190077
810.0, 0.00109703
816.0, 0.000173896
822.0, 0.00194554
828.0, 0.000712853
834.0, 0.00282477
840.0, 0.00188726
846.0, 0.00375731
852.0, 0.0011094
858.0, 0.00591818
864.0, 0.00602246
870.0, 0.010872
876.0, 0.0144342
882.0, 0.0203955
888.0, 0.0268991
894.0, 0.0409072
900.0, 0.047776
906.0, 0.053343
912.0, 0.0712924
918.0, 0.0916315
924.0, 0.118731
930.0, 0.0988286
936.0, 0.075912
942.0, 0.0675177
948.0, 0.064785
954.0, 0.0563987
960.0, 0.055923
966.0, 0.0550263
972.0, 0.0488675
978.0, 0.0492955
984.0, 0.0491949
990.0, 0.0553327
996.0, 0.0615653
1002.0, 0.0760613
1008.0, 0.0940821
1014.0, 0.113291
1020.0, 0.130015
1026.0, 0.145304
1032.0, 0.169611
1038.0, 0.245943
1044.0, 0.34706
1050.0, 0.337855
1056.0, 0.264532
1062.0, 0.217606
1068.0, 0.120963
1074.0, 0.0676253
1080.0, 0.0452813
1086.0, 0.0337996
1092.0, 0.0262571
1098.0, 0.0212982
1104.0, 0.0186048
1110.0, 0.0142131
1116.0, 0.0128167
1122.0, 0.0138079
1128.0, 0.0118815
1134.0, 0.00577653
1140.0, 0.00196871
1146.0, 0.00109749
1152.0, 0.000400965
1158.0, 0.00253683
1164.0, 0.000651997
1170.0, 0.000493687
1176.0, 0.000543631
1182.0, 0.00077961
1188.0, 0.000308639
1194.0, 0.00155655
1200.0, 0.000608255
1206.0, 0.00224808
1212.0, 0.00123891
1218.0, 0.00085048
1224.0, 0.000964216
1230.0, 0.00320934
1236.0, 0.000854792
1242.0, 0.00419884
1248.0, 0.00379228
1254.0, 0.00425791
1260.0, 0.00458553
1266.0, 0.00465008
1272.0, 0.002971
1278.0, 0.0047958
1284.0, 0.00512299
1290.0, 0.00700509
1296.0, 0.00693207
1302.0, 0.00524868
1308.0, 0.00709815
1314.0, 0.00669549
1320.0, 0.00573698
1326.0, 0.00650985
1332.0, 0.00703771
1338.0, 0.0056146
1344.0, 0.00708066
1350.0, 0.00458485
1356.0, 0.00747873
1362.0, 0.00578668
1368.0, 0.00417846
1374.0, 0.00354742
1380.0, 0.00517069
1386.0, 0.00252542
1392.0, 0.00336205
1398.0, 0.00294238
1404.0, 0.00297261
1410.0, 0.00194004
1416.0, 0.00363716
1422.0, 0.00486743
1428.0, 0.00414866
1434.0, 0.00118717
1440.0, 0.000681104
1446.0, 0.000677925
1452.0, 0.00182162
1458.0, 0.00284908
1464.0, 0.00318057
1470.0, 0.00134963
1476.0, 0.000782129
1482.0, 0.00377215
1488.0, 0.000838274
1494.0, 0.00524913
1500.0, 0.00243447
1506.0, 0.00138112
1512.0, 0.00474939
1518.0, 0.00383813
1524.0, 0.00415212
1530.0, 0.0035732
1536.0, 0.00539732
1542.0, 0.00273883
1548.0, 0.00171018
1554.0, 0.00793645
1560.0, 0.00311704
1566.0, 0.000606607
1572, 0.0
1578, 0.0
1584, 0.0
1590, 0.0
1596, 0.0
1599, 0.0