File: raw data/Dataset_2/Ferroactinolite/Ferroactinolite__R060189-3__Raman__514__90__ccw__Raman_Data_Processed__13254.txt
30, 0.0
36, 0.0
42, 0.0
48, 0.0
54, 0.0
60, 0.0
66, 0.0
72, 0.0
78, 0.0
84, 0.0
90, 0.0
96.0, 0.000140214
102.0, 0.00268924
108.0, 0.0221439
114.0, 0.0121907
120.0, 0.0063446
126.0, 0.005185
132.0, 0.0198916
138.0, 0.0569022
144.0, 0.224339
150.0, 0.347536
156.0, 0.116008
162.0, 0.0849846
168.0, 0.210539
174.0, 0.331437
180.0, 0.142326
186.0, 0.076996
192.0, 0.0820762
198.0, 0.115792
204.0, 0.174224
210.0, 0.255572
216.0, 0.390609
222.0, 0.362977
228.0, 0.199527
234.0, 0.0908475
240.0, 0.05263
246.0, 0.036893
252.0, 0.0289944
258.0, 0.0243038
264.0, 0.0237218
270.0, 0.022773
276.0, 0.0233768
282.0, 0.0276156
288.0, 0.0309972
294.0, 0.0275904
300.0, 0.018689
306.0, 0.0161914
312.0, 0.0152083
318.0, 0.0175268
324.0, 0.0239766
330.0, 0.0270267
336.0, 0.0320022
342.0, 0.0378042
348.0, 0.0479285
354.0, 0.0533413
360.0, 0.052737
366.0, 0.0405432
372.0, 0.0342849
378.0, 0.0396592
384.0, 0.0389596
390.0, 0.0303635
396.0, 0.0185165
402.0, 0.0117759
408.0, 0.00719966
414.0, 0.00142939
420.0, 0.000426736
426.0, 0.00266519
432.0, 0.00463133
438.0, 0.00119431
444.0, 0.00269853
450.0, 0.0032076
456.0, 0.00103145
462.0, 0.00126919
468.0, 0.0012827
474.0, 0.000526994
480.0, 0.000813644
486.0, 0.000448619
492.0, 0.004239
498.0, 0.00760429
504.0, 0.013691
510.0, 0.0170785
516.0, 0.0220232
522.0, 0.0317105
528.0, 0.0342419
534.0, 0.0284403
540.0, 0.0252074
546.0, 0.0210264
552.0, 0.0182896
558.0, 0.0154719
564.0, 0.0144871
570.0, 0.0138588
576.0, 0.011203
582.0, 0.00694132
588.0, 0.00477161
594.0, 0.00262831
600.0, 0.00713391
606.0, 0.0105775
612.0, 0.0138175
618.0, 0.0223723
624.0, 0.0320005
630.0, 0.0508398
636.0, 0.0773113
642.0, 0.116537
648.0, 0.181114
654.0, 0.324075
660.0, 0.67451
666.0, 0.998771
672.0, 0.583098
678.0, 0.229309
684.0, 0.112587
690.0, 0.0628198
696.0, 0.0389718
702.0, 0.0243321
708.0, 0.0178158
714.0, 0.0135462
720.0, 0.0115325
726.0, 0.0105669
732.0, 0.0119098
738.0, 0.0138273
744.0, 0.0119713
750.0, 0.00982492
756.0, 0.00716855
762.0, 0.00525192
768.0, 0.00457545
774.0, 0.003841
780.0, 0.00301436
786.0, 0.000657556
792.0, 0.00145135
798.0, 0.00190693
804.0, 0.00267736
810.0, 0.000841311
816.0, 0.000819404
822.0, 0.00101826
828.0, 0.000361892
834.0, 0.000576574
840.0, 0.000657284
846.0, 0.00301108
852.0, 0.00142192
858.0, 0.00404451
864.0, 0.00469015
870.0, 0.00762509
876.0, 0.00934884
882.0, 0.0142049
888.0, 0.0179511
894.0, 0.0266022
900.0, 0.0334346
906.0, 0.0401633
912.0, 0.05494
918.0, 0.079934
924.0, 0.107436
930.0, 0.0899857
936.0, 0.0661169
942.0, 0.0566275
948.0, 0.0530492
954.0, 0.0455928
960.0, 0.0439147
966.0, 0.0414764
972.0, 0.0449303
978.0, 0.0376719
984.0, 0.0380927
990.0, 0.0409577
996.0, 0.0485445
1002.0, 0.0569531
1008.0, 0.0719864
1014.0, 0.0882623
1020.0, 0.105842
1026.0, 0.122261
1032.0, 0.150111
1038.0, 0.221977
1044.0, 0.32586
1050.0, 0.338395
1056.0, 0.255125
1062.0, 0.219529
1068.0, 0.120632
1074.0, 0.0668587
1080.0, 0.040668
1086.0, 0.0304503
1092.0, 0.0230947
1098.0, 0.0213122
1104.0, 0.0167168
1110.0, 0.0138074
1116.0, 0.00989062
1122.0, 0.011962
1128.0, 0.00924389
1134.0, 0.00521879
1140.0, 0.00227911
1146.0, 0.00187022
1152.0, 0.000378345
1158.0, 0.00227199
1164.0, 0.00188451
1170.0, 0.000156623
1176.0, 0.000997365
1182.0, 0.000516234
1188.0, 0.00178671
1194.0, 0.000865411
1200.0, 0.00106852
1206.0, 0.00152358
1212.0, 0.0023851
1218.0, 0.00111938
1224.0, 0.000860668
1230.0, 0.00222819
1236.0, 0.00311938
1242.0, 0.00296723
1248.0, 0.00367814
1254.0, 0.00316202
1260.0, 0.00281906
1266.0, 0.00401728
1272.0, 0.00471856
1278.0, 0.00425244
1284.0, 0.00537098
1290.0, 0.00433866
1296.0, 0.00512051
1302.0, 0.00446061
1308.0, 0.00410162
1314.0, 0.00519602
1320.0, 0.00580596
1326.0, 0.00409818
1332.0, 0.0039104
1338.0, 0.00430092
1344.0, 0.00397758
1350.0, 0.00541617
1356.0, 0.00155508
1362.0, 0.00273404
1368.0, 0.00445947
1374.0, 0.00249969
1380.0, 0.00322975
1386.0, 0.00130966
1392.0, 0.00165709
1398.0, 0.00122102
1404.0, 0.00159585
1410.0, 0.00149888
1416.0, 0.00132229
1422.0, 0.000238959
1428.0, 0.00155905
1434.0, 0.00231124
1440.0, 0.00140569
1446.0, 0.0019965
1452.0, 0.000510073
1458.0, 0.00107001
1464.0, 0.00212834
1470.0, 0.00160157
1476.0, 0.00250028
1482.0, 0.00186192
1488.0, 0.00229563
1494.0, 6.89968e-05
1500.0, 0.00262787
1506.0, 0.00497599
1512.0, 0.00345498
1518.0, 0.00282084
1524.0, 0.00362885
1530.0, 0.00342306
1536.0, 0.00360224
1542.0, 0.00298299
1548.0, 0.00277537
1554.0, 0.00461279
1560.0, 0.000294715
1566.0, 0.00189249
1572, 0.0
1578, 0.0
1584, 0.0
1590, 0.0
1596, 0.0
1599, 0.0