File: raw data/Dataset_2/Ferroactinolite/Ferroactinolite__R060189-4__Raman__514__90__ccw__Raman_Data_Processed__13260.txt
30, 0.0
36, 0.0
42, 0.0
48, 0.0
54, 0.0
60, 0.0
66, 0.0
72, 0.0
78, 0.0
84, 0.0
90, 0.0
96.0, 0.000329553
102.0, 0.0011602
108.0, 0.065134
114.0, 0.0342375
120.0, 0.0301565
126.0, 0.0374797
132.0, 0.0676578
138.0, 0.0869641
144.0, 0.309135
150.0, 0.284492
156.0, 0.0831536
162.0, 0.0626896
168.0, 0.174509
174.0, 0.223437
180.0, 0.092541
186.0, 0.0631393
192.0, 0.0985113
198.0, 0.143639
204.0, 0.212615
210.0, 0.253609
216.0, 0.319189
222.0, 0.256433
228.0, 0.161276
234.0, 0.109875
240.0, 0.0791553
246.0, 0.0588176
252.0, 0.0314943
258.0, 0.0209824
264.0, 0.0108203
270.0, 0.00579735
276.0, 0.00957318
282.0, 0.0109977
288.0, 0.0115799
294.0, 0.0161005
300.0, 0.0135212
306.0, 0.0137964
312.0, 0.0200626
318.0, 0.0228605
324.0, 0.0414052
330.0, 0.0576796
336.0, 0.0679554
342.0, 0.0735514
348.0, 0.087768
354.0, 0.107945
360.0, 0.10676
366.0, 0.0884807
372.0, 0.0962567
378.0, 0.124687
384.0, 0.128966
390.0, 0.099573
396.0, 0.0768392
402.0, 0.0514329
408.0, 0.0306749
414.0, 0.021955
420.0, 0.0145564
426.0, 0.033587
432.0, 0.0480345
438.0, 0.0106843
444.0, 0.00539594
450.0, 0.00658277
456.0, 0.00756874
462.0, 0.00658398
468.0, 0.00163607
474.0, 0.000599429
480.0, 0.00267158
486.0, 0.0116874
492.0, 0.0217427
498.0, 0.0320608
504.0, 0.047036
510.0, 0.0639651
516.0, 0.0804093
522.0, 0.095896
528.0, 0.0865364
534.0, 0.0818896
540.0, 0.0659654
546.0, 0.0557052
552.0, 0.0538039
558.0, 0.0464976
564.0, 0.0475636
570.0, 0.0421399
576.0, 0.0340434
582.0, 0.0176853
588.0, 0.0122518
594.0, 0.00741545
600.0, 0.00878188
606.0, 0.0115675
612.0, 0.00852985
618.0, 0.0183841
624.0, 0.034923
630.0, 0.0512967
636.0, 0.0899504
642.0, 0.126077
648.0, 0.191665
654.0, 0.350429
660.0, 0.721133
666.0, 0.981583
672.0, 0.576835
678.0, 0.27024
684.0, 0.149296
690.0, 0.0893363
696.0, 0.0530253
702.0, 0.0386752
708.0, 0.0321491
714.0, 0.0255621
720.0, 0.0223806
726.0, 0.0307267
732.0, 0.0291841
738.0, 0.0293817
744.0, 0.0283697
750.0, 0.0158057
756.0, 0.0170816
762.0, 0.0140093
768.0, 0.00621694
774.0, 0.00305548
780.0, 0.0113471
786.0, 0.00743942
792.0, 0.00195095
798.0, 0.00216998
804.0, 0.000672259
810.0, 0.00389173
816.0, 0.00410851
822.0, 0.00263635
828.0, 0.00337787
834.0, 0.0021936
840.0, 0.0025277
846.0, 0.00242226
852.0, 0.0116106
858.0, 0.00901524
864.0, 0.0161521
870.0, 0.0223527
876.0, 0.0228101
882.0, 0.0272434
888.0, 0.0369502
894.0, 0.0556933
900.0, 0.0653095
906.0, 0.0707234
912.0, 0.0848369
918.0, 0.104503
924.0, 0.124347
930.0, 0.102339
936.0, 0.0821005
942.0, 0.0704486
948.0, 0.0739614
954.0, 0.0799719
960.0, 0.0744158
966.0, 0.0775071
972.0, 0.0708386
978.0, 0.0690156
984.0, 0.064882
990.0, 0.0635556
996.0, 0.0805192
1002.0, 0.105126
1008.0, 0.126092
1014.0, 0.160626
1020.0, 0.193243
1026.0, 0.189641
1032.0, 0.171321
1038.0, 0.21807
1044.0, 0.282237
1050.0, 0.266259
1056.0, 0.241192
1062.0, 0.201928
1068.0, 0.114854
1074.0, 0.0627558
1080.0, 0.0514293
1086.0, 0.0353128
1092.0, 0.0353639
1098.0, 0.0240566
1104.0, 0.0245395
1110.0, 0.0180709
1116.0, 0.0118075
1122.0, 0.0291444
1128.0, 0.019723
1134.0, 0.00686079
1140.0, 0.00837924
1146.0, 0.00119933
1152.0, 0.00111659
1158.0, 0.00882461
1164.0, 0.00484359
1170.0, 0.00702287
1176.0, 0.0033262
1182.0, 0.00223757
1188.0, 0.0010989
1194.0, 0.00467092
1200.0, 0.00589968
1206.0, 0.00466625
1212.0, 0.000439046
1218.0, 0.00366695
1224.0, 0.00199461
1230.0, 0.00693563
1236.0, 0.0131271
1242.0, 0.0076672
1248.0, 0.00548784
1254.0, 0.0119912
1260.0, 0.0114389
1266.0, 0.0163235
1272.0, 0.0110515
1278.0, 0.0106524
1284.0, 0.0224633
1290.0, 0.0153345
1296.0, 0.0215583
1302.0, 0.0214075
1308.0, 0.0257729
1314.0, 0.0233517
1320.0, 0.0181402
1326.0, 0.022156
1332.0, 0.0212898
1338.0, 0.024895
1344.0, 0.0248685
1350.0, 0.0246839
1356.0, 0.0178374
1362.0, 0.0230361
1368.0, 0.0197409
1374.0, 0.0203896
1380.0, 0.022647
1386.0, 0.0131449
1392.0, 0.0147802
1398.0, 0.00976399
1404.0, 0.0185205
1410.0, 0.0106052
1416.0, 0.0073788
1422.0, 0.00503051
1428.0, 0.00344972
1434.0, 0.000576388
1440.0, 0.00352785
1446.0, 0.00253864
1452.0, 0.000915243
1458.0, 0.00240473
1464.0, 0.000730559
1470.0, 0.00272706
1476.0, 0.00623304
1482.0, 0.00676535
1488.0, 0.00877633
1494.0, 0.0117309
1500.0, 0.00911041
1506.0, 0.00807857
1512.0, 0.0125222
1518.0, 0.0132068
1524.0, 0.00503229
1530.0, 0.01528
1536.0, 0.0150229
1542.0, 0.0174385
1548.0, 0.0160043
1554.0, 0.0224992
1560.0, 0.00638611
1566.0, 0.00628269
1572, 0.0
1578, 0.0
1584, 0.0
1590, 0.0
1596, 0.0
1599, 0.0