File: raw data/Dataset_2/Ferroactinolite/Ferroactinolite__R060189-4__Raman__514__45__ccw__Raman_Data_Processed__13258.txt
30, 0.0
36, 0.0
42, 0.0
48, 0.0
54, 0.0
60, 0.0
66, 0.0
72, 0.0
78, 0.0
84, 0.0
90, 0.0
96.0, 2.43e-05
102.0, 0.00805925
108.0, 0.126705
114.0, 0.177801
120.0, 0.0801133
126.0, 0.0526416
132.0, 0.0774882
138.0, 0.115703
144.0, 0.331822
150.0, 0.261964
156.0, 0.0911784
162.0, 0.0738415
168.0, 0.19227
174.0, 0.221515
180.0, 0.0966752
186.0, 0.073953
192.0, 0.116229
198.0, 0.164554
204.0, 0.230889
210.0, 0.211565
216.0, 0.262258
222.0, 0.197988
228.0, 0.132105
234.0, 0.0892167
240.0, 0.0585355
246.0, 0.0305725
252.0, 0.014322
258.0, 0.00648457
264.0, 0.00577076
270.0, 0.00966743
276.0, 0.00615499
282.0, 0.00412069
288.0, 0.0124119
294.0, 0.0106507
300.0, 0.0138159
306.0, 0.0128352
312.0, 0.0222457
318.0, 0.0288445
324.0, 0.0475411
330.0, 0.0666681
336.0, 0.0721013
342.0, 0.0786495
348.0, 0.0985605
354.0, 0.113915
360.0, 0.115726
366.0, 0.101804
372.0, 0.120255
378.0, 0.14797
384.0, 0.155156
390.0, 0.117737
396.0, 0.0850895
402.0, 0.0673149
408.0, 0.0331745
414.0, 0.018854
420.0, 0.0180262
426.0, 0.0385553
432.0, 0.0401221
438.0, 0.0148124
444.0, 0.0059328
450.0, 0.00731438
456.0, 0.00518459
462.0, 0.0044024
468.0, 0.00507727
474.0, 0.0243434
480.0, 0.00952557
486.0, 0.0203454
492.0, 0.0372032
498.0, 0.0576118
504.0, 0.0712259
510.0, 0.0858324
516.0, 0.0939612
522.0, 0.108728
528.0, 0.104602
534.0, 0.0984906
540.0, 0.0841311
546.0, 0.0745261
552.0, 0.0667171
558.0, 0.063104
564.0, 0.0647885
570.0, 0.0501295
576.0, 0.0374161
582.0, 0.0301782
588.0, 0.0125466
594.0, 0.0144807
600.0, 0.0110344
606.0, 0.00485036
612.0, 0.0132149
618.0, 0.0178509
624.0, 0.0295329
630.0, 0.0537335
636.0, 0.0921629
642.0, 0.138073
648.0, 0.202317
654.0, 0.368244
660.0, 0.74098
666.0, 0.998213
672.0, 0.585441
678.0, 0.270553
684.0, 0.147993
690.0, 0.0964333
696.0, 0.0682661
702.0, 0.0428906
708.0, 0.0291633
714.0, 0.0294523
720.0, 0.0338609
726.0, 0.0446516
732.0, 0.0625436
738.0, 0.0577872
744.0, 0.0431235
750.0, 0.030641
756.0, 0.0290124
762.0, 0.0158776
768.0, 0.0163494
774.0, 0.0067277
780.0, 0.00289009
786.0, 0.00428316
792.0, 0.00122274
798.0, 0.00125018
804.0, 0.00430731
810.0, 0.00429824
816.0, 0.00137195
822.0, 0.00351915
828.0, 0.00200289
834.0, 0.00664626
840.0, 0.00248785
846.0, 0.0115917
852.0, 0.00415351
858.0, 0.0146644
864.0, 0.0178623
870.0, 0.0230275
876.0, 0.0339323
882.0, 0.0359952
888.0, 0.0321084
894.0, 0.0608814
900.0, 0.0687967
906.0, 0.0829759
912.0, 0.083195
918.0, 0.106662
924.0, 0.130568
930.0, 0.109969
936.0, 0.0925466
942.0, 0.08391
948.0, 0.0790511
954.0, 0.0802879
960.0, 0.0780326
966.0, 0.0737177
972.0, 0.0672386
978.0, 0.0622767
984.0, 0.0606792
990.0, 0.0729395
996.0, 0.0882759
1002.0, 0.101873
1008.0, 0.126993
1014.0, 0.162292
1020.0, 0.197785
1026.0, 0.196257
1032.0, 0.180788
1038.0, 0.214762
1044.0, 0.274237
1050.0, 0.261135
1056.0, 0.239885
1062.0, 0.223571
1068.0, 0.12291
1074.0, 0.0736238
1080.0, 0.0616825
1086.0, 0.0471908
1092.0, 0.03596
1098.0, 0.0326846
1104.0, 0.0308871
1110.0, 0.0209124
1116.0, 0.0160419
1122.0, 0.0317834
1128.0, 0.0239915
1134.0, 0.00602412
1140.0, 0.00389294
1146.0, 0.00645763
1152.0, 0.00241438
1158.0, 0.00188735
1164.0, 0.00971468
1170.0, 0.0109677
1176.0, 0.00406118
1182.0, 0.00478962
1188.0, 0.00127763
1194.0, 0.00300035
1200.0, 0.0066954
1206.0, 0.00482419
1212.0, 0.00574303
1218.0, 0.00396199
1224.0, 0.00168118
1230.0, 0.0101118
1236.0, 0.0140336
1242.0, 0.00849388
1248.0, 0.007795
1254.0, 0.00853217
1260.0, 0.00821425
1266.0, 0.0101193
1272.0, 0.00769683
1278.0, 0.0171905
1284.0, 0.020556
1290.0, 0.021663
1296.0, 0.0182101
1302.0, 0.0149997
1308.0, 0.0251619
1314.0, 0.0201445
1320.0, 0.024252
1326.0, 0.0145048
1332.0, 0.0218303
1338.0, 0.0254941
1344.0, 0.02882
1350.0, 0.0295044
1356.0, 0.0260265
1362.0, 0.0167744
1368.0, 0.0222526
1374.0, 0.0263134
1380.0, 0.0195387
1386.0, 0.0170574
1392.0, 0.0175583
1398.0, 0.0171989
1404.0, 0.0190763
1410.0, 0.0101759
1416.0, 0.00625855
1422.0, 0.00581768
1428.0, 0.00387446
1434.0, 0.00746375
1440.0, 0.00442329
1446.0, 0.0014581
1452.0, 0.00335337
1458.0, 0.00278205
1464.0, 0.00709265
1470.0, 0.00474311
1476.0, 0.0109435
1482.0, 0.0108485
1488.0, 0.0130122
1494.0, 0.0137444
1500.0, 0.0101796
1506.0, 0.0176655
1512.0, 0.014745
1518.0, 0.0218398
1524.0, 0.0166468
1530.0, 0.018441
1536.0, 0.0265326
1542.0, 0.0216423
1548.0, 0.0198967
1554.0, 0.0240846
1560.0, 0.0105206
1566.0, 0.00302656
1572, 0.0
1578, 0.0
1584, 0.0
1590, 0.0
1596, 0.0
1599, 0.0