File: raw data/Dataset_2/Ferroactinolite/Ferroactinolite__R060189-3__Raman__514__0__ccw__Raman_Data_Processed__13250.txt
30, 0.0
36, 0.0
42, 0.0
48, 0.0
54, 0.0
60, 0.0
66, 0.0
72, 0.0
78, 0.0
84, 0.0
90, 0.0
96.0, 0.000332136
102.0, 0.00290616
108.0, 0.0779754
114.0, 0.0402551
120.0, 0.0208554
126.0, 0.0240031
132.0, 0.0518237
138.0, 0.0687115
144.0, 0.212884
150.0, 0.254149
156.0, 0.076539
162.0, 0.0511618
168.0, 0.138954
174.0, 0.185808
180.0, 0.0810856
186.0, 0.0606308
192.0, 0.114917
198.0, 0.189441
204.0, 0.294493
210.0, 0.326847
216.0, 0.408487
222.0, 0.341026
228.0, 0.262805
234.0, 0.177414
240.0, 0.11441
246.0, 0.0739484
252.0, 0.0413437
258.0, 0.0200269
264.0, 0.00702848
270.0, 0.00153206
276.0, 0.00124763
282.0, 0.00145229
288.0, 0.0103509
294.0, 0.00986102
300.0, 0.0098177
306.0, 0.00978953
312.0, 0.00944395
318.0, 0.0111848
324.0, 0.0272648
330.0, 0.0422204
336.0, 0.0607581
342.0, 0.0869422
348.0, 0.0975262
354.0, 0.124564
360.0, 0.131432
366.0, 0.124183
372.0, 0.13922
378.0, 0.190326
384.0, 0.194841
390.0, 0.155612
396.0, 0.115835
402.0, 0.0834453
408.0, 0.0585981
414.0, 0.0399785
420.0, 0.0316476
426.0, 0.0692892
432.0, 0.0955065
438.0, 0.038259
444.0, 0.0110219
450.0, 0.00126868
456.0, 0.00531869
462.0, 0.00746039
468.0, 0.00556983
474.0, 0.000369313
480.0, 0.00657132
486.0, 0.0201999
492.0, 0.0381345
498.0, 0.0648347
504.0, 0.0883152
510.0, 0.11258
516.0, 0.135086
522.0, 0.144202
528.0, 0.127266
534.0, 0.102453
540.0, 0.0907104
546.0, 0.0787529
552.0, 0.0669167
558.0, 0.059791
564.0, 0.0602741
570.0, 0.0502839
576.0, 0.0374726
582.0, 0.0186048
588.0, 0.00867589
594.0, 0.00224552
600.0, 0.000658852
606.0, 0.00202928
612.0, 0.00427882
618.0, 0.00986419
624.0, 0.0225619
630.0, 0.0409676
636.0, 0.0730669
642.0, 0.112472
648.0, 0.175893
654.0, 0.32444
660.0, 0.675418
666.0, 0.998832
672.0, 0.621202
678.0, 0.288488
684.0, 0.163255
690.0, 0.103303
696.0, 0.0687378
702.0, 0.0498768
708.0, 0.0382616
714.0, 0.0353371
720.0, 0.0338149
726.0, 0.0381675
732.0, 0.0512522
738.0, 0.05826
744.0, 0.0479205
750.0, 0.0343518
756.0, 0.0253731
762.0, 0.0199873
768.0, 0.0163574
774.0, 0.00692656
780.0, 0.00708615
786.0, 0.000976823
792.0, 0.00149594
798.0, 0.000416455
804.0, 0.00420292
810.0, 0.00389992
816.0, 0.00339172
822.0, 0.00184615
828.0, 0.00694931
834.0, 0.00210751
840.0, 0.00396904
846.0, 0.00497245
852.0, 0.0105454
858.0, 0.0112896
864.0, 0.0199436
870.0, 0.0175511
876.0, 0.0270298
882.0, 0.0345866
888.0, 0.0409734
894.0, 0.0583788
900.0, 0.0659645
906.0, 0.073538
912.0, 0.0897783
918.0, 0.116165
924.0, 0.135805
930.0, 0.119662
936.0, 0.095289
942.0, 0.0907455
948.0, 0.0903474
954.0, 0.0898899
960.0, 0.0870743
966.0, 0.091013
972.0, 0.0910697
978.0, 0.0917787
984.0, 0.0954736
990.0, 0.106948
996.0, 0.126634
1002.0, 0.157598
1008.0, 0.196676
1014.0, 0.259321
1020.0, 0.325854
1026.0, 0.308774
1032.0, 0.247977
1038.0, 0.262914
1044.0, 0.320707
1050.0, 0.320523
1056.0, 0.297421
1062.0, 0.27774
1068.0, 0.163457
1074.0, 0.0974686
1080.0, 0.0676541
1086.0, 0.0536841
1092.0, 0.0437401
1098.0, 0.0431033
1104.0, 0.0409295
1110.0, 0.0351433
1116.0, 0.0310533
1122.0, 0.0410255
1128.0, 0.0323467
1134.0, 0.0163928
1140.0, 0.010332
1146.0, 0.00228034
1152.0, 0.0027203
1158.0, 0.00023239
1164.0, 0.00149103
1170.0, 0.000256514
1176.0, 0.00379168
1182.0, 0.00129243
1188.0, 0.0030646
1194.0, 0.00162949
1200.0, 0.00307344
1206.0, 0.00159643
1212.0, 0.00343562
1218.0, 0.000447173
1224.0, 0.00146978
1230.0, 0.000465948
1236.0, 0.0024338
1242.0, 0.00492873
1248.0, 0.00779299
1254.0, 0.010863
1260.0, 0.00469679
1266.0, 0.0105383
1272.0, 0.00815332
1278.0, 0.0104316
1284.0, 0.0109888
1290.0, 0.01344
1296.0, 0.00963334
1302.0, 0.0128837
1308.0, 0.0135521
1314.0, 0.012835
1320.0, 0.0165236
1326.0, 0.00808613
1332.0, 0.0118092
1338.0, 0.00918378
1344.0, 0.0143492
1350.0, 0.00777723
1356.0, 0.00755148
1362.0, 0.010723
1368.0, 0.00837861
1374.0, 0.0100873
1380.0, 0.00548387
1386.0, 0.00909392
1392.0, 0.0072234
1398.0, 0.00878263
1404.0, 0.0085998
1410.0, 0.00436217
1416.0, 0.00415164
1422.0, 0.00389198
1428.0, 0.00530251
1434.0, 0.00385888
1440.0, 0.00731031
1446.0, 0.00332081
1452.0, 0.00275045
1458.0, 0.00151806
1464.0, 0.0027242
1470.0, 0.00122459
1476.0, 0.00545879
1482.0, 0.00215553
1488.0, 0.00789168
1494.0, 0.00420288
1500.0, 0.00541435
1506.0, 0.0104652
1512.0, 0.0069067
1518.0, 0.00838835
1524.0, 0.0115
1530.0, 0.00974751
1536.0, 0.00830481
1542.0, 0.00640307
1548.0, 0.00629799
1554.0, 0.0157434
1560.0, 0.00366499
1566.0, 0.000628171
1572, 0.0
1578, 0.0
1584, 0.0
1590, 0.0
1596, 0.0
1599, 0.0