File: raw data/Dataset_2/Ferroactinolite/Ferroactinolite__R060189-4__Raman__514__0__ccw__Raman_Data_Processed__13256.txt
30, 0.0
36, 0.0
42, 0.0
48, 0.0
54, 0.0
60, 0.0
66, 0.0
72, 0.0
78, 0.0
84, 0.0
90, 0.0
96.0, 3.57046e-05
102.0, 0.020785
108.0, 0.184309
114.0, 0.23643
120.0, 0.135257
126.0, 0.045855
132.0, 0.0627155
138.0, 0.0951008
144.0, 0.172168
150.0, 0.123095
156.0, 0.0763206
162.0, 0.10999
168.0, 0.251643
174.0, 0.288592
180.0, 0.158388
186.0, 0.103381
192.0, 0.12641
198.0, 0.151613
204.0, 0.18121
210.0, 0.13249
216.0, 0.157684
222.0, 0.144335
228.0, 0.0595892
234.0, 0.0334233
240.0, 0.0164626
246.0, 0.00529566
252.0, 0.0111591
258.0, 0.00621437
264.0, 0.00971705
270.0, 0.0058174
276.0, 0.00402145
282.0, 0.00503266
288.0, 0.00513569
294.0, 0.0144981
300.0, 0.000854657
306.0, 0.00776234
312.0, 0.00623267
318.0, 0.00171812
324.0, 0.0201469
330.0, 0.0286316
336.0, 0.058956
342.0, 0.0929766
348.0, 0.137847
354.0, 0.174332
360.0, 0.185973
366.0, 0.16285
372.0, 0.174874
378.0, 0.201595
384.0, 0.183209
390.0, 0.136939
396.0, 0.098056
402.0, 0.0697546
408.0, 0.033473
414.0, 0.0233814
420.0, 0.014559
426.0, 0.00915437
432.0, 0.000364663
438.0, 0.00509861
444.0, 0.000667
450.0, 0.00252635
456.0, 0.00695
462.0, 0.000639935
468.0, 0.00981011
474.0, 0.000784129
480.0, 0.0110014
486.0, 0.0164483
492.0, 0.0292488
498.0, 0.0428423
504.0, 0.0464399
510.0, 0.0655479
516.0, 0.0669179
522.0, 0.0777172
528.0, 0.0853886
534.0, 0.0901447
540.0, 0.0835836
546.0, 0.0751035
552.0, 0.0768081
558.0, 0.0708883
564.0, 0.0717129
570.0, 0.0660872
576.0, 0.0490256
582.0, 0.0380431
588.0, 0.0080881
594.0, 0.0235079
600.0, 0.010142
606.0, 0.0204287
612.0, 0.0194326
618.0, 0.031371
624.0, 0.0355002
630.0, 0.05418
636.0, 0.087815
642.0, 0.123494
648.0, 0.201313
654.0, 0.370664
660.0, 0.72434
666.0, 0.998758
672.0, 0.578651
678.0, 0.276051
684.0, 0.145708
690.0, 0.0942265
696.0, 0.068428
702.0, 0.0494081
708.0, 0.0389138
714.0, 0.0428777
720.0, 0.0349781
726.0, 0.0382524
732.0, 0.0585671
738.0, 0.057097
744.0, 0.0661704
750.0, 0.0310295
756.0, 0.0283427
762.0, 0.0257955
768.0, 0.024965
774.0, 0.015639
780.0, 0.0060913
786.0, 0.00976539
792.0, 0.00592032
798.0, 0.00431211
804.0, 0.0123788
810.0, 0.0106759
816.0, 0.00340508
822.0, 0.00198011
828.0, 0.0149072
834.0, 0.014114
840.0, 0.0127553
846.0, 0.0193731
852.0, 0.00737773
858.0, 0.0147688
864.0, 0.0203411
870.0, 0.0232446
876.0, 0.0286724
882.0, 0.0242935
888.0, 0.00571816
894.0, 0.0192151
900.0, 0.0303881
906.0, 0.0265736
912.0, 0.0452424
918.0, 0.0469621
924.0, 0.0523801
930.0, 0.0495134
936.0, 0.033072
942.0, 0.0234641
948.0, 0.0284795
954.0, 0.0240923
960.0, 0.0225363
966.0, 0.0165271
972.0, 0.01606
978.0, 0.0166417
984.0, 0.0185487
990.0, 0.0170126
996.0, 0.0287128
1002.0, 0.0260155
1008.0, 0.0245659
1014.0, 0.0541315
1020.0, 0.084853
1026.0, 0.0856159
1032.0, 0.0809629
1038.0, 0.0890232
1044.0, 0.131937
1050.0, 0.13386
1056.0, 0.163219
1062.0, 0.169354
1068.0, 0.0955933
1074.0, 0.0503098
1080.0, 0.0412242
1086.0, 0.0347445
1092.0, 0.0283254
1098.0, 0.0211266
1104.0, 0.0116189
1110.0, 0.00618507
1116.0, 0.00632114
1122.0, 0.0258934
1128.0, 0.0224091
1134.0, 0.00350835
1140.0, 0.00930889
1146.0, 0.00754132
1152.0, 0.00374645
1158.0, 0.0217422
1164.0, 0.00536149
1170.0, 0.0080873
1176.0, 0.0175606
1182.0, 0.00444842
1188.0, 0.00640789
1194.0, 0.0108349
1200.0, 0.0184834
1206.0, 0.0161856
1212.0, 0.0098385
1218.0, 0.0144798
1224.0, 0.0132586
1230.0, 0.00715962
1236.0, 0.0318164
1242.0, 0.0170658
1248.0, 0.0178546
1254.0, 0.0184932
1260.0, 0.014154
1266.0, 0.0362486
1272.0, 0.0335172
1278.0, 0.0317363
1284.0, 0.0380338
1290.0, 0.033845
1296.0, 0.0334537
1302.0, 0.0421444
1308.0, 0.0465302
1314.0, 0.0471896
1320.0, 0.0373076
1326.0, 0.0496073
1332.0, 0.0373343
1338.0, 0.0337021
1344.0, 0.057155
1350.0, 0.0561926
1356.0, 0.040685
1362.0, 0.0667782
1368.0, 0.0662184
1374.0, 0.0523732
1380.0, 0.0414116
1386.0, 0.0392481
1392.0, 0.0263584
1398.0, 0.0337785
1404.0, 0.0281727
1410.0, 0.0273532
1416.0, 0.0232115
1422.0, 0.0136435
1428.0, 0.0150601
1434.0, 0.00817204
1440.0, 0.0115311
1446.0, 0.00216689
1452.0, 0.00179669
1458.0, 0.00357869
1464.0, 0.00427853
1470.0, 0.00857125
1476.0, 0.0101784
1482.0, 0.0145111
1488.0, 0.00587203
1494.0, 0.0145282
1500.0, 0.0199787
1506.0, 0.0223461
1512.0, 0.0141879
1518.0, 0.00737838
1524.0, 3.46334e-06
1530, 0.0
1536, 0.0
1542, 0.0
1548, 0.0
1554, 0.0
1560, 0.0
1566, 0.0
1572, 0.0
1578, 0.0
1584, 0.0
1590, 0.0
1596, 0.0
1599, 0.0