File: raw data/Dataset_2/GlassHo/GlassHo__R110083__Raman__780__0__unoriented__Raman_Data_Processed__35505.txt
30, 0.0
36, 0.0
42, 0.0
48, 0.0
54, 0.0
60, 0.0
66, 0.0
72, 0.0
78, 0.0
84, 0.0
90, 0.0
96.0, 0.998236
102.0, 0.96401
108.0, 0.968884
114.0, 0.974159
120.0, 0.970821
126.0, 0.968098
132.0, 0.963587
138.0, 0.962498
144.0, 0.956755
150.0, 0.95335
156.0, 0.945523
162.0, 0.937162
168.0, 0.934424
174.0, 0.920678
180.0, 0.914115
186.0, 0.90106
192.0, 0.887613
198.0, 0.879444
204.0, 0.86414
210.0, 0.852071
216.0, 0.841811
222.0, 0.829435
228.0, 0.814779
234.0, 0.80598
240.0, 0.796992
246.0, 0.787284
252.0, 0.77732
258.0, 0.771126
264.0, 0.76925
270.0, 0.764524
276.0, 0.762002
282.0, 0.762172
288.0, 0.763267
294.0, 0.764761
300.0, 0.769041
306.0, 0.767152
312.0, 0.771124
318.0, 0.774622
324.0, 0.775715
330.0, 0.778303
336.0, 0.779593
342.0, 0.780926
348.0, 0.785504
354.0, 0.779848
360.0, 0.776753
366.0, 0.77226
372.0, 0.766301
378.0, 0.755728
384.0, 0.751563
390.0, 0.738617
396.0, 0.734995
402.0, 0.721683
408.0, 0.71911
414.0, 0.711666
420.0, 0.704851
426.0, 0.70041
432.0, 0.701286
438.0, 0.691577
444.0, 0.689256
450.0, 0.684342
456.0, 0.68295
462.0, 0.681933
468.0, 0.675985
474.0, 0.672002
480.0, 0.667075
486.0, 0.658632
492.0, 0.653352
498.0, 0.648709
504.0, 0.639675
510.0, 0.630347
516.0, 0.618922
522.0, 0.607747
528.0, 0.589704
534.0, 0.572558
540.0, 0.555966
546.0, 0.544951
552.0, 0.531285
558.0, 0.519066
564.0, 0.50832
570.0, 0.499775
576.0, 0.483182
582.0, 0.469479
588.0, 0.450868
594.0, 0.432275
600.0, 0.415392
606.0, 0.393529
612.0, 0.380471
618.0, 0.367325
624.0, 0.353397
630.0, 0.344873
636.0, 0.334917
642.0, 0.325912
648.0, 0.316642
654.0, 0.304569
660.0, 0.294848
666.0, 0.283093
672.0, 0.273502
678.0, 0.259864
684.0, 0.2462
690.0, 0.232913
696.0, 0.220862
702.0, 0.208825
708.0, 0.201968
714.0, 0.190137
720.0, 0.181424
726.0, 0.175551
732.0, 0.167735
738.0, 0.160622
744.0, 0.149771
750.0, 0.14213
756.0, 0.139338
762.0, 0.133769
768.0, 0.129417
774.0, 0.121497
780.0, 0.118282
786.0, 0.109674
792.0, 0.104686
798.0, 0.0973397
804.0, 0.0922687
810.0, 0.0870657
816.0, 0.0831459
822.0, 0.078901
828.0, 0.0791836
834.0, 0.0779266
840.0, 0.0877143
846.0, 0.0931182
852.0, 0.103135
858.0, 0.112648
864.0, 0.12102
870.0, 0.136293
876.0, 0.143487
882.0, 0.1568
888.0, 0.167023
894.0, 0.176117
900.0, 0.186517
906.0, 0.195611
912.0, 0.205012
918.0, 0.217398
924.0, 0.222668
930.0, 0.232392
936.0, 0.24115
942.0, 0.244289
948.0, 0.249893
954.0, 0.253635
960.0, 0.261724
966.0, 0.258482
972.0, 0.26843
978.0, 0.26972
984.0, 0.270415
990.0, 0.271319
996.0, 0.275129
1002.0, 0.274168
1008.0, 0.269559
1014.0, 0.267869
1020.0, 0.263873
1026.0, 0.261942
1032.0, 0.252235
1038.0, 0.241161
1044.0, 0.232824
1050.0, 0.218905
1056.0, 0.204468
1062.0, 0.189818
1068.0, 0.175975
1074.0, 0.161691
1080.0, 0.145925
1086.0, 0.13192
1092.0, 0.115496
1098.0, 0.105073
1104.0, 0.0928979
1110.0, 0.0789601
1116.0, 0.0720941
1122.0, 0.0618665
1128.0, 0.055691
1134.0, 0.0506455
1140.0, 0.0463056
1146.0, 0.0369576
1152.0, 0.0334836
1158.0, 0.0307005
1164.0, 0.0271385
1170.0, 0.0246264
1176.0, 0.0204887
1182.0, 0.0164956
1188.0, 0.0144806
1194.0, 0.0140853
1200.0, 0.0101224
1206.0, 0.00964577
1212.0, 0.0120623
1218.0, 0.00771011
1224.0, 0.00476294
1230.0, 0.0075563
1236.0, 0.00518281
1242.0, 0.0026188
1248.0, 0.00283909
1254.0, 0.00323316
1260.0, 0.00491203
1266.0, 0.00357523
1272.0, 0.00422719
1278.0, 0.00390599
1284.0, 0.00448032
1290, 0.0
1296, 0.0
1302, 0.0
1308, 0.0
1314, 0.0
1320, 0.0
1326, 0.0
1332, 0.0
1338, 0.0
1344, 0.0
1350, 0.0
1356, 0.0
1362, 0.0
1368, 0.0
1374, 0.0
1380, 0.0
1386, 0.0
1392, 0.0
1398, 0.0
1404, 0.0
1410, 0.0
1416, 0.0
1422, 0.0
1428, 0.0
1434, 0.0
1440, 0.0
1446, 0.0
1452, 0.0
1458, 0.0
1464, 0.0
1470, 0.0
1476, 0.0
1482, 0.0
1488, 0.0
1494, 0.0
1500, 0.0
1506, 0.0
1512, 0.0
1518, 0.0
1524, 0.0
1530, 0.0
1536, 0.0
1542, 0.0
1548, 0.0
1554, 0.0
1560, 0.0
1566, 0.0
1572, 0.0
1578, 0.0
1584, 0.0
1590, 0.0
1596, 0.0
1599, 0.0