File: raw data/Dataset_2/GlassHo/GlassHo__R110083__Raman__532__0__unoriented__Raman_Data_Processed__35504.txt
30, 0.0
36, 0.0
42, 0.0
48, 0.0
54, 0.0
60, 0.0
66, 0.0
72, 0.0
78, 0.0
84, 0.0
90, 0.0
96, 0.0
102, 0.0
108, 0.0
114, 0.0
120, 0.0
126, 0.0
132, 0.0
138, 0.0
144, 0.0
150, 0.0
156, 0.0
162, 0.0
168, 0.0
174, 0.0
180, 0.0
186.0, 0.437747
192.0, 0.452423
198.0, 0.470071
204.0, 0.474679
210.0, 0.479862
216.0, 0.486684
222.0, 0.493467
228.0, 0.497502
234.0, 0.505556
240.0, 0.508332
246.0, 0.512308
252.0, 0.518385
258.0, 0.524288
264.0, 0.527544
270.0, 0.535378
276.0, 0.54389
282.0, 0.548705
288.0, 0.550548
294.0, 0.559391
300.0, 0.568271
306.0, 0.575164
312.0, 0.583381
318.0, 0.592133
324.0, 0.599796
330.0, 0.608501
336.0, 0.620279
342.0, 0.629902
348.0, 0.6372
354.0, 0.650219
360.0, 0.661421
366.0, 0.672314
372.0, 0.685078
378.0, 0.696406
384.0, 0.709179
390.0, 0.722837
396.0, 0.735065
402.0, 0.749129
408.0, 0.764012
414.0, 0.777912
420.0, 0.789936
426.0, 0.803483
432.0, 0.81724
438.0, 0.828612
444.0, 0.843349
450.0, 0.857989
456.0, 0.86763
462.0, 0.882219
468.0, 0.890501
474.0, 0.901745
480.0, 0.913347
486.0, 0.924243
492.0, 0.93361
498.0, 0.94431
504.0, 0.950279
510.0, 0.958047
516.0, 0.962118
522.0, 0.96704
528.0, 0.97611
534.0, 0.978111
540.0, 0.98191
546.0, 0.984903
552.0, 0.989317
558.0, 0.989786
564.0, 0.989444
570.0, 0.991602
576.0, 0.992231
582.0, 0.998277
588.0, 0.998488
594.0, 0.999793
600.0, 0.997643
606.0, 0.995488
612.0, 0.997584
618.0, 0.996597
624.0, 0.993047
630.0, 0.989621
636.0, 0.990385
642.0, 0.986382
648.0, 0.982361
654.0, 0.979445
660.0, 0.975539
666.0, 0.963934
672.0, 0.955807
678.0, 0.948285
684.0, 0.940144
690.0, 0.929661
696.0, 0.915585
702.0, 0.898051
708.0, 0.883582
714.0, 0.864698
720.0, 0.842347
726.0, 0.823273
732.0, 0.802392
738.0, 0.775809
744.0, 0.74853
750.0, 0.721728
756.0, 0.697622
762.0, 0.666539
768.0, 0.637955
774.0, 0.607661
780.0, 0.576763
786.0, 0.546057
792.0, 0.515685
798.0, 0.487161
804.0, 0.4574
810.0, 0.43186
816.0, 0.405331
822.0, 0.37973
828.0, 0.353593
834.0, 0.330979
840.0, 0.31029
846.0, 0.288954
852.0, 0.269658
858.0, 0.25268
864.0, 0.234967
870.0, 0.218649
876.0, 0.204966
882.0, 0.190075
888.0, 0.17801
894.0, 0.165913
900.0, 0.154308
906.0, 0.144539
912.0, 0.1346
918.0, 0.126108
924.0, 0.117244
930.0, 0.109433
936.0, 0.101348
942.0, 0.0948321
948.0, 0.088502
954.0, 0.0829772
960.0, 0.0773209
966.0, 0.0727547
972.0, 0.0678667
978.0, 0.0632474
984.0, 0.05919
990.0, 0.0557166
996.0, 0.0519321
1002.0, 0.0489526
1008.0, 0.0457993
1014.0, 0.0426675
1020.0, 0.040078
1026.0, 0.0375518
1032.0, 0.0353236
1038.0, 0.0335029
1044.0, 0.0313947
1050.0, 0.0293682
1056.0, 0.0278947
1062.0, 0.0258253
1068.0, 0.0245898
1074.0, 0.0228923
1080.0, 0.0215575
1086.0, 0.020471
1092.0, 0.0191247
1098.0, 0.0181333
1104.0, 0.0168635
1110.0, 0.0158707
1116.0, 0.0149161
1122.0, 0.0141156
1128.0, 0.0130817
1134.0, 0.0122577
1140.0, 0.0116094
1146.0, 0.0107688
1152.0, 0.0102121
1158.0, 0.00951347
1164.0, 0.00887749
1170.0, 0.00824574
1176.0, 0.0078139
1182.0, 0.00722865
1188.0, 0.0067002
1194.0, 0.00617705
1200.0, 0.00572911
1206.0, 0.00525139
1212.0, 0.00478131
1218.0, 0.00441498
1224.0, 0.00396392
1230.0, 0.00361376
1236.0, 0.0032091
1242.0, 0.00273711
1248.0, 0.0025471
1254.0, 0.00224136
1260.0, 0.00203172
1266.0, 0.00148293
1272.0, 0.00134229
1278.0, 0.00100703
1284.0, 0.00088811
1290.0, 0.000635392
1296.0, 0.000288562
1302.0, 9.01465e-06
1308, 0.0
1314, 0.0
1320, 0.0
1326, 0.0
1332, 0.0
1338, 0.0
1344, 0.0
1350, 0.0
1356, 0.0
1362, 0.0
1368, 0.0
1374, 0.0
1380, 0.0
1386, 0.0
1392, 0.0
1398, 0.0
1404, 0.0
1410, 0.0
1416, 0.0
1422, 0.0
1428, 0.0
1434, 0.0
1440, 0.0
1446, 0.0
1452, 0.0
1458, 0.0
1464, 0.0
1470, 0.0
1476, 0.0
1482, 0.0
1488, 0.0
1494, 0.0
1500, 0.0
1506, 0.0
1512, 0.0
1518, 0.0
1524, 0.0
1530, 0.0
1536, 0.0
1542, 0.0
1548, 0.0
1554, 0.0
1560, 0.0
1566, 0.0
1572, 0.0
1578, 0.0
1584, 0.0
1590, 0.0
1596, 0.0
1599, 0.0