File: raw data/Dataset_2/Yttriumaluminumgarnet/Yttriumaluminumgarnet__X090003__Raman__532__0__unoriented__Raman_Data_Processed__31994.txt
30, 0.0
36, 0.0
42, 0.0
48, 0.0
54, 0.0
60, 0.0
66, 0.0
72, 0.0
78, 0.0
84, 0.0
90, 0.0
96, 0.0
102.0, 0.00314154
108.0, 0.0010596
114.0, 0.000928205
120.0, 0.0114751
126.0, 0.0288924
132.0, 0.0496863
138.0, 0.062571
144.0, 0.16976
150.0, 0.131599
156.0, 0.180004
162.0, 0.880541
168.0, 0.0527924
174.0, 0.0306397
180.0, 0.023616
186.0, 0.0200143
192.0, 0.0141042
198.0, 0.0131795
204.0, 0.023594
210.0, 0.0377094
216.0, 0.11111
222.0, 0.0363623
228.0, 0.00193204
234.0, 0.00236195
240.0, 0.0234552
246.0, 0.107269
252.0, 0.211668
258.0, 0.69447
264.0, 0.312195
270.0, 0.0401551
276.0, 0.0110529
282.0, 0.0110919
288.0, 0.0145915
294.0, 0.0547317
300.0, 0.00561892
306.0, 0.0047513
312.0, 0.00138373
318.0, 0.00482746
324.0, 0.022351
330.0, 0.0642261
336.0, 0.20091
342.0, 0.164825
348.0, 0.0403129
354.0, 0.0849562
360.0, 0.203559
366.0, 0.527862
372.0, 0.789451
378.0, 0.158315
384.0, 0.0857963
390.0, 0.160542
396.0, 0.389716
402.0, 0.829702
408.0, 0.244774
414.0, 0.0369727
420.0, 0.0103188
426.0, 0.00222078
432.0, 0.00173914
438.0, 0.0077989
444.0, 0.00100827
450.0, 0.00103143
456.0, 0.00194293
462.0, 0.000666874
468.0, 0.000990653
474.0, 0.00190907
480.0, 0.00464227
486.0, 0.00319221
492.0, 0.000608478
498.0, 0.00345654
504.0, 0.00398914
510.0, 0.00344451
516.0, 0.00508637
522.0, 0.00712242
528.0, 0.0157402
534.0, 0.0381136
540.0, 0.0651679
546.0, 0.0748859
552.0, 0.0414939
558.0, 0.0521975
564.0, 0.0252826
570.0, 0.0132848
576.0, 0.0097148
582.0, 0.0074753
588.0, 0.00545674
594.0, 0.00352419
600.0, 0.00175305
606.0, 0.00226071
612.0, 0.00238845
618.0, 0.00324127
624.0, 0.00206815
630.0, 0.000230305
636.0, 0.00111338
642.0, 0.000721224
648.0, 0.000636838
654.0, 0.00137085
660.0, 0.000234449
666.0, 0.000223244
672.0, 0.00298564
678.0, 0.0162142
684.0, 0.0465397
690.0, 0.0847653
696.0, 0.0408083
702.0, 0.0410317
708.0, 0.0872716
714.0, 0.17144
720.0, 0.134757
726.0, 0.0319195
732.0, 0.00452294
738.0, 0.00207339
744.0, 0.0043655
750.0, 0.0209642
756.0, 0.0352999
762.0, 0.0509282
768.0, 0.130676
774.0, 0.318684
780.0, 0.642127
786.0, 0.401392
792.0, 0.132838
798.0, 0.056868
804.0, 0.0236962
810.0, 0.0092614
816.0, 0.00348537
822.0, 0.00087717
828.0, 0.00185123
834.0, 0.00199112
840.0, 0.00687155
846.0, 0.0251712
852.0, 0.0559168
858.0, 0.0637979
864.0, 0.0245209
870.0, 0.00688568
876.0, 0.00203746
882.0, 0.000107552
888.0, 0.00126824
894.0, 0.000765946
900.0, 0.00143604
906.0, 0.00662058
912.0, 0.00825992
918.0, 0.0122057
924.0, 0.0135272
930.0, 0.0118236
936.0, 0.0087824
942.0, 0.00758722
948.0, 0.00332014
954.0, 0.00252916
960.0, 0.00486764
966.0, 0.0104173
972.0, 0.0170859
978.0, 0.00680216
984.0, 0.0027374
990.0, 0.000557486
996.0, 0.000276668
1002.0, 0.000472201
1008.0, 0.000291059
1014.0, 0.00050413
1020.0, 0.000561545
1026.0, 0.000885016
1032.0, 0.00194041
1038.0, 0.00258027
1044.0, 0.0013428
1050.0, 0.0035181
1056.0, 0.00509719
1062.0, 0.00810299
1068.0, 0.00888808
1074.0, 0.00716811
1080.0, 0.00418772
1086.0, 0.00490967
1092.0, 0.00446273
1098.0, 0.0036449
1104.0, 0.00339022
1110.0, 0.00260988
1116.0, 0.00213265
1122.0, 0.00014486
1128.0, 0.000506042
1134.0, 0.0006885
1140.0, 0.00443131
1146.0, 0.00664491
1152.0, 0.0139364
1158.0, 0.0192452
1164.0, 0.0282131
1170.0, 0.0415794
1176.0, 0.0579432
1182.0, 0.0771135
1188.0, 0.104385
1194.0, 0.121123
1200.0, 0.104221
1206.0, 0.0677596
1212.0, 0.0396506
1218.0, 0.0254672
1224.0, 0.0140136
1230.0, 0.00736978
1236.0, 0.00417955
1242.0, 0.002353
1248.0, 0.0023746
1254.0, 0.000408589
1260.0, 0.000423105
1266.0, 0.000652923
1272.0, 0.000357549
1278.0, 0.00172328
1284.0, 0.00286918
1290.0, 0.00168252
1296.0, 0.000771735
1302.0, 0.000153353
1308, 0.0
1314, 0.0
1320, 0.0
1326, 0.0
1332, 0.0
1338, 0.0
1344, 0.0
1350, 0.0
1356, 0.0
1362, 0.0
1368, 0.0
1374, 0.0
1380, 0.0
1386, 0.0
1392, 0.0
1398, 0.0
1404, 0.0
1410, 0.0
1416, 0.0
1422, 0.0
1428, 0.0
1434, 0.0
1440, 0.0
1446, 0.0
1452, 0.0
1458, 0.0
1464, 0.0
1470, 0.0
1476, 0.0
1482, 0.0
1488, 0.0
1494, 0.0
1500, 0.0
1506, 0.0
1512, 0.0
1518, 0.0
1524, 0.0
1530, 0.0
1536, 0.0
1542, 0.0
1548, 0.0
1554, 0.0
1560, 0.0
1566, 0.0
1572, 0.0
1578, 0.0
1584, 0.0
1590, 0.0
1596, 0.0
1599, 0.0