File: raw data/Dataset_2/Yttriumaluminumgarnet/Yttriumaluminumgarnet__R150067__Raman__532__0__unoriented__Raman_Data_Processed__38851.txt
30, 0.0
36, 0.0
42, 0.0
48, 0.0
54, 0.0
60, 0.0
66, 0.0
72, 0.0
78, 0.0
84, 0.0
90.0, 5.62314e-06
96.0, 0.00141738
102.0, 0.00339929
108.0, 0.00741131
114.0, 0.00302134
120.0, 0.000150833
126.0, 0.000268747
132.0, 0.0020338
138.0, 0.00450254
144.0, 0.0170887
150.0, 0.0192161
156.0, 0.0310087
162.0, 0.0882649
168.0, 0.0257481
174.0, 0.0257647
180.0, 0.0161161
186.0, 0.00657537
192.0, 0.00485868
198.0, 0.00860076
204.0, 0.0163558
210.0, 0.0257632
216.0, 0.0264686
222.0, 0.017827
228.0, 0.00177283
234.0, 0.00132224
240.0, 0.00165695
246.0, 0.0149985
252.0, 0.0235853
258.0, 0.072577
264.0, 0.0729292
270.0, 0.0242004
276.0, 0.0151557
282.0, 0.00685007
288.0, 0.00347003
294.0, 0.00721752
300.0, 0.00106658
306.0, 0.00138265
312.0, 0.00241285
318.0, 0.00745209
324.0, 0.0192954
330.0, 0.0488901
336.0, 0.106201
342.0, 0.204482
348.0, 0.042083
354.0, 0.0226586
360.0, 0.0579402
366.0, 0.0700913
372.0, 0.164303
378.0, 0.0392778
384.0, 0.0217913
390.0, 0.0327773
396.0, 0.0768056
402.0, 0.233739
408.0, 0.154348
414.0, 0.0388838
420.0, 0.0159632
426.0, 0.00996334
432.0, 0.000586627
438.0, 2.08791e-05
444.0, 0.00116086
450.0, 0.000946026
456.0, 0.000431271
462.0, 0.00259369
468.0, 0.00651923
474.0, 0.00669309
480.0, 0.0292067
486.0, 0.0239319
492.0, 0.00774621
498.0, 0.00916852
504.0, 0.0079458
510.0, 0.00789864
516.0, 0.00261523
522.0, 0.000413803
528.0, 0.000386391
534.0, 0.00253426
540.0, 0.00652399
546.0, 0.0107347
552.0, 0.0049998
558.0, 0.0116191
564.0, 0.00750638
570.0, 0.00219542
576.0, 0.0026583
582.0, 0.00400623
588.0, 0.00536356
594.0, 0.0073632
600.0, 0.00143321
606.0, 0.000464463
612.0, 0.00145466
618.0, 0.000552271
624.0, 0.00124077
630.0, 0.000269245
636.0, 0.00143869
642.0, 0.000319888
648.0, 0.00325449
654.0, 0.00981259
660.0, 0.0229054
666.0, 0.0453468
672.0, 0.0481434
678.0, 0.0249842
684.0, 0.0123534
690.0, 0.0128891
696.0, 0.00299199
702.0, 0.00204704
708.0, 0.0105603
714.0, 0.0219307
720.0, 0.0158982
726.0, 0.000210029
732.0, 0.0013451
738.0, 0.011596
744.0, 0.0545962
750.0, 0.135753
756.0, 0.0900995
762.0, 0.0871803
768.0, 0.0586458
774.0, 0.0477095
780.0, 0.0964865
786.0, 0.0563287
792.0, 0.00551119
798.0, 6.15739e-05
804.0, 0.00657194
810.0, 0.0193063
816.0, 0.0390765
822.0, 0.0410976
828.0, 0.083316
834.0, 0.0472743
840.0, 0.00588877
846.0, 0.00124465
852.0, 0.0131607
858.0, 0.0328621
864.0, 0.0432883
870.0, 0.0193075
876.0, 0.00425169
882.0, 0.00105465
888.0, 0.000436093
894.0, 0.00790288
900.0, 0.0241844
906.0, 0.0539858
912.0, 0.0800993
918.0, 0.109559
924.0, 0.128792
930.0, 0.109971
936.0, 0.0705452
942.0, 0.0407357
948.0, 0.0226729
954.0, 0.0187254
960.0, 0.0308823
966.0, 0.0770268
972.0, 0.194964
978.0, 0.111604
984.0, 0.0283913
990.0, 0.00673611
996.0, 0.000349852
1002.0, 0.000883545
1008.0, 0.000721723
1014.0, 0.000228129
1020.0, 0.00144195
1026.0, 0.00451528
1032.0, 0.00932853
1038.0, 0.0162644
1044.0, 0.0270235
1050.0, 0.0445841
1056.0, 0.0634947
1062.0, 0.0789433
1068.0, 0.0841242
1074.0, 0.0729382
1080.0, 0.0512512
1086.0, 0.0280441
1092.0, 0.0102354
1098.0, 0.000598668
1104.0, 0.00418102
1110.0, 0.0011876
1116.0, 0.00530486
1122.0, 0.0146287
1128.0, 0.0240875
1134.0, 0.0399038
1140.0, 0.0606304
1146.0, 0.0894336
1152.0, 0.131185
1158.0, 0.186186
1164.0, 0.259785
1170.0, 0.358009
1176.0, 0.481371
1182.0, 0.637632
1188.0, 0.853807
1194.0, 0.999805
1200.0, 0.833782
1206.0, 0.521589
1212.0, 0.283186
1218.0, 0.133426
1224.0, 0.045643
1230.0, 0.00808536
1236.0, 9.68543e-05
1242.0, 0.00199304
1248.0, 0.00232457
1254.0, 0.0011633
1260.0, 0.00620491
1266.0, 0.0126958
1272.0, 0.0166332
1278.0, 0.00979403
1284.0, 0.00607002
1290.0, 0.0031036
1296.0, 0.00138809
1302, 0.0
1308, 0.0
1314, 0.0
1320, 0.0
1326, 0.0
1332, 0.0
1338, 0.0
1344, 0.0
1350, 0.0
1356, 0.0
1362, 0.0
1368, 0.0
1374, 0.0
1380, 0.0
1386, 0.0
1392, 0.0
1398, 0.0
1404, 0.0
1410, 0.0
1416, 0.0
1422, 0.0
1428, 0.0
1434, 0.0
1440, 0.0
1446, 0.0
1452, 0.0
1458, 0.0
1464, 0.0
1470, 0.0
1476, 0.0
1482, 0.0
1488, 0.0
1494, 0.0
1500, 0.0
1506, 0.0
1512, 0.0
1518, 0.0
1524, 0.0
1530, 0.0
1536, 0.0
1542, 0.0
1548, 0.0
1554, 0.0
1560, 0.0
1566, 0.0
1572, 0.0
1578, 0.0
1584, 0.0
1590, 0.0
1596, 0.0
1599, 0.0