File: raw data/Dataset_2/Yttriumaluminumgarnet/Yttriumaluminumgarnet__R150067__Raman__780__0__unoriented__Raman_Data_Processed__38853.txt
30, 0.0
36, 0.0
42, 0.0
48, 0.0
54, 0.0
60, 0.0
66, 0.0
72, 0.0
78, 0.0
84, 0.0
90, 0.0
96.0, 0.00290875
102.0, 0.0058192
108.0, 0.0120084
114.0, 0.0121525
120.0, 0.0203845
126.0, 0.017664
132.0, 0.00962901
138.0, 0.0022514
144.0, 0.00218081
150.0, 0.00404081
156.0, 2.98183e-05
162.0, 0.00562182
168.0, 0.0164193
174.0, 0.0377811
180.0, 0.0748477
186.0, 0.129945
192.0, 0.196931
198.0, 0.182633
204.0, 0.151645
210.0, 0.143961
216.0, 0.0927698
222.0, 0.0982499
228.0, 0.160267
234.0, 0.269636
240.0, 0.386187
246.0, 0.336152
252.0, 0.174615
258.0, 0.0727414
264.0, 0.022955
270.0, 0.000887975
276.0, 0.00289884
282.0, 0.0422764
288.0, 0.119913
294.0, 0.193288
300.0, 0.136814
306.0, 0.0732054
312.0, 0.0471941
318.0, 0.0379065
324.0, 0.0348765
330.0, 0.0220769
336.0, 0.00497437
342.0, 0.0164957
348.0, 0.00638328
354.0, 0.0249056
360.0, 0.078822
366.0, 0.157378
372.0, 0.270475
378.0, 0.400669
384.0, 0.509388
390.0, 0.479723
396.0, 0.398795
402.0, 0.31559
408.0, 0.314758
414.0, 0.309019
420.0, 0.364563
426.0, 0.498755
432.0, 0.578157
438.0, 0.667784
444.0, 0.944479
450.0, 0.875537
456.0, 0.477052
462.0, 0.205807
468.0, 0.0530219
474.0, 0.0150117
480.0, 0.00508982
486.0, 0.0930476
492.0, 0.262721
498.0, 0.414392
504.0, 0.522617
510.0, 0.609247
516.0, 0.646752
522.0, 0.47959
528.0, 0.218501
534.0, 0.0591494
540.0, 0.00357826
546.0, 0.011449
552.0, 0.022761
558.0, 0.117544
564.0, 0.271138
570.0, 0.491891
576.0, 0.762852
582.0, 0.924809
588.0, 0.695172
594.0, 0.333233
600.0, 0.124755
606.0, 0.0247087
612.0, 0.00828406
618.0, 0.00860573
624.0, 0.0871357
630.0, 0.256024
636.0, 0.527729
642.0, 0.835236
648.0, 0.877044
654.0, 0.523773
660.0, 0.230524
666.0, 0.0955949
672.0, 0.0468897
678.0, 0.0494966
684.0, 0.0863777
690.0, 0.126997
696.0, 0.13607
702.0, 0.109224
708.0, 0.0651181
714.0, 0.0263774
720.0, 0.00227707
726.0, 0.00782471
732.0, 0.00179661
738.0, 0.0333472
744.0, 0.0929536
750.0, 0.162093
756.0, 0.208788
762.0, 0.208623
768.0, 0.169306
774.0, 0.115735
780.0, 0.0719668
786.0, 0.0361385
792.0, 0.0130676
798.0, 0.00258486
804.0, 0.00117511
810.0, 0.000924268
816.0, 0.003048
822.0, 0.00817248
828.0, 0.0143926
834.0, 0.0245676
840.0, 0.0305078
846.0, 0.0262698
852.0, 0.0148053
858.0, 0.00600717
864.0, 0.00131723
870.0, 0.00117061
876.0, 0.000397417
882.0, 0.00088332
888.0, 0.00180042
894.0, 0.00576903
900.0, 0.00794117
906.0, 0.00545192
912.0, 0.00526911
918.0, 0.00464485
924.0, 0.00372302
930.0, 0.00396107
936.0, 0.00405193
942.0, 0.002303
948.0, 0.00101178
954.0, 0.00285952
960.0, 0.00809225
966.0, 0.0142091
972.0, 0.0244707
978.0, 0.0331489
984.0, 0.0348706
990.0, 0.0309618
996.0, 0.0234104
1002.0, 0.0167886
1008.0, 0.0100744
1014.0, 0.00262154
1020.0, 0.00016051
1026.0, 0.0029281
1032.0, 0.00180746
1038.0, 0.00862857
1044.0, 0.0348041
1050.0, 0.0382899
1056.0, 0.0316255
1062.0, 0.0310816
1068.0, 0.0273789
1074.0, 0.0424259
1080.0, 0.103427
1086.0, 0.251373
1092.0, 0.465283
1098.0, 0.360801
1104.0, 0.130324
1110.0, 0.0465538
1116.0, 0.0157117
1122.0, 0.00388332
1128.0, 0.00265402
1134.0, 0.00352124
1140.0, 0.0246803
1146.0, 0.0486716
1152.0, 0.0208576
1158.0, 0.0111791
1164.0, 0.0318316
1170.0, 0.0559682
1176.0, 0.066412
1182.0, 0.0643329
1188.0, 0.059812
1194.0, 0.0516814
1200.0, 0.0527928
1206.0, 0.0421927
1212.0, 0.0232895
1218.0, 0.0161198
1224.0, 0.0463206
1230.0, 0.191529
1236.0, 0.368602
1242.0, 0.163209
1248.0, 0.0431464
1254.0, 0.00399827
1260.0, 0.0108872
1266.0, 0.075063
1272.0, 0.0489013
1278.0, 0.0210243
1284.0, 0.0072578
1290, 0.0
1296, 0.0
1302, 0.0
1308, 0.0
1314, 0.0
1320, 0.0
1326, 0.0
1332, 0.0
1338, 0.0
1344, 0.0
1350, 0.0
1356, 0.0
1362, 0.0
1368, 0.0
1374, 0.0
1380, 0.0
1386, 0.0
1392, 0.0
1398, 0.0
1404, 0.0
1410, 0.0
1416, 0.0
1422, 0.0
1428, 0.0
1434, 0.0
1440, 0.0
1446, 0.0
1452, 0.0
1458, 0.0
1464, 0.0
1470, 0.0
1476, 0.0
1482, 0.0
1488, 0.0
1494, 0.0
1500, 0.0
1506, 0.0
1512, 0.0
1518, 0.0
1524, 0.0
1530, 0.0
1536, 0.0
1542, 0.0
1548, 0.0
1554, 0.0
1560, 0.0
1566, 0.0
1572, 0.0
1578, 0.0
1584, 0.0
1590, 0.0
1596, 0.0
1599, 0.0