File: raw data/Dataset_2/Yttriumaluminumgarnet/Yttriumaluminumgarnet__R110105__Raman__532__0__unoriented__Raman_Data_Processed__35690.txt
30, 0.0
36, 0.0
42, 0.0
48, 0.0
54, 0.0
60, 0.0
66, 0.0
72, 0.0
78, 0.0
84, 0.0
90, 0.0
96, 0.0
102, 0.0
108, 0.0
114, 0.0
120, 0.0
126.0, 0.0017562
132.0, 0.0160663
138.0, 0.0400843
144.0, 0.0818298
150.0, 0.117806
156.0, 0.195088
162.0, 0.305676
168.0, 0.244202
174.0, 0.288122
180.0, 0.253728
186.0, 0.129697
192.0, 0.0534914
198.0, 0.0218936
204.0, 0.0272251
210.0, 0.0392339
216.0, 0.109021
222.0, 0.0208696
228.0, 0.0098584
234.0, 8.6453e-05
240.0, 0.044907
246.0, 0.1803
252.0, 0.345985
258.0, 0.82815
264.0, 0.315998
270.0, 0.069816
276.0, 0.045034
282.0, 0.0366817
288.0, 0.0242408
294.0, 0.058955
300.0, 0.012224
306.0, 0.00485922
312.0, 0.00212955
318.0, 0.0029106
324.0, 0.0210757
330.0, 0.064641
336.0, 0.158962
342.0, 0.117234
348.0, 0.0332564
354.0, 0.110846
360.0, 0.273261
366.0, 0.562805
372.0, 0.675302
378.0, 0.139595
384.0, 0.0848856
390.0, 0.162528
396.0, 0.350945
402.0, 0.573387
408.0, 0.227478
414.0, 0.0368887
420.0, 0.0101531
426.0, 0.00218034
432.0, 0.0016037
438.0, 0.00322855
444.0, 0.00358646
450.0, 0.00340015
456.0, 0.00340191
462.0, 0.00188352
468.0, 0.000698158
474.0, 0.00490964
480.0, 0.0079972
486.0, 0.00465479
492.0, 0.00843884
498.0, 0.010738
504.0, 0.00841603
510.0, 0.00379626
516.0, 0.00390757
522.0, 0.00911193
528.0, 0.0213845
534.0, 0.0432802
540.0, 0.077529
546.0, 0.08287
552.0, 0.045548
558.0, 0.0474478
564.0, 0.0217715
570.0, 0.0115735
576.0, 0.0116688
582.0, 0.0153876
588.0, 0.0189676
594.0, 0.0135692
600.0, 0.0141896
606.0, 0.00878881
612.0, 0.00585544
618.0, 0.00708101
624.0, 0.00448631
630.0, 0.00344923
636.0, 0.00490174
642.0, 0.000224027
648.0, 0.00313134
654.0, 0.000804045
660.0, 0.00146685
666.0, 0.000535258
672.0, 0.00897508
678.0, 0.0227529
684.0, 0.0651185
690.0, 0.101085
696.0, 0.0554788
702.0, 0.0528883
708.0, 0.103744
714.0, 0.185186
720.0, 0.134784
726.0, 0.036099
732.0, 0.00836324
738.0, 0.00134851
744.0, 0.00907293
750.0, 0.0292334
756.0, 0.0445099
762.0, 0.0577751
768.0, 0.132313
774.0, 0.292113
780.0, 0.497157
786.0, 0.289368
792.0, 0.10004
798.0, 0.038053
804.0, 0.012409
810.0, 0.00454215
816.0, 0.00513291
822.0, 0.00398547
828.0, 0.00588559
834.0, 0.00670009
840.0, 0.00308402
846.0, 0.0276381
852.0, 0.0619903
858.0, 0.0726251
864.0, 0.0323582
870.0, 0.012187
876.0, 0.011589
882.0, 0.00354394
888.0, 0.00719009
894.0, 0.00276434
900.0, 0.00570329
906.0, 0.0106364
912.0, 0.0120683
918.0, 0.0153826
924.0, 0.0231753
930.0, 0.00683502
936.0, 0.0145562
942.0, 0.00542636
948.0, 0.00596649
954.0, 0.00722868
960.0, 0.0114785
966.0, 0.0262312
972.0, 0.0314912
978.0, 0.0135864
984.0, 0.0076112
990.0, 0.00179663
996.0, 0.00948455
1002.0, 0.00052959
1008.0, 0.00515932
1014.0, 0.00218554
1020.0, 0.00828082
1026.0, 0.00820552
1032.0, 0.00703718
1038.0, 0.0103378
1044.0, 0.00505349
1050.0, 0.00818241
1056.0, 0.00430025
1062.0, 0.00973965
1068.0, 0.0107483
1074.0, 0.00570003
1080.0, 0.00480213
1086.0, 0.0091799
1092.0, 0.0138739
1098.0, 0.0126068
1104.0, 0.0097318
1110.0, 0.0128791
1116.0, 0.0113225
1122.0, 0.00863003
1128.0, 0.00647389
1134.0, 0.00095203
1140.0, 0.00684069
1146.0, 0.00151098
1152.0, 0.00194261
1158.0, 0.0025361
1164.0, 0.00118766
1170.0, 0.000187599
1176.0, 0.00751463
1182.0, 0.0119881
1188.0, 0.0211263
1194.0, 0.0204626
1200.0, 0.0188131
1206.0, 0.0177532
1212.0, 0.0157507
1218.0, 0.00787154
1224.0, 0.00927948
1230.0, 0.00969232
1236.0, 0.00217007
1242.0, 0.00189872
1248.0, 0.009735
1254.0, 0.0106986
1260.0, 0.0158373
1266.0, 0.0167028
1272.0, 0.0108169
1278.0, 0.0182858
1284.0, 0.00828578
1290.0, 0.00385057
1296.0, 0.00352967
1302.0, 0.00058957
1308, 0.0
1314, 0.0
1320, 0.0
1326, 0.0
1332, 0.0
1338, 0.0
1344, 0.0
1350, 0.0
1356, 0.0
1362, 0.0
1368, 0.0
1374, 0.0
1380, 0.0
1386, 0.0
1392, 0.0
1398, 0.0
1404, 0.0
1410, 0.0
1416, 0.0
1422, 0.0
1428, 0.0
1434, 0.0
1440, 0.0
1446, 0.0
1452, 0.0
1458, 0.0
1464, 0.0
1470, 0.0
1476, 0.0
1482, 0.0
1488, 0.0
1494, 0.0
1500, 0.0
1506, 0.0
1512, 0.0
1518, 0.0
1524, 0.0
1530, 0.0
1536, 0.0
1542, 0.0
1548, 0.0
1554, 0.0
1560, 0.0
1566, 0.0
1572, 0.0
1578, 0.0
1584, 0.0
1590, 0.0
1596, 0.0
1599, 0.0