File: raw data/Dataset_2/Ferrohogbomite2N2S/Ferrohogbomite2N2S__R061017__Raman__532__0__unoriented__Raman_Data_Processed__14756.txt
30, 0.0
36, 0.0
42, 0.0
48, 0.0
54, 0.0
60, 0.0
66, 0.0
72, 0.0
78, 0.0
84, 0.0
90, 0.0
96, 0.0
102, 0.0
108, 0.0
114, 0.0
120, 0.0
126, 0.0
132, 0.0
138, 0.0
144, 0.0
150, 0.0
156, 0.0
162.0, 0.0379422
168.0, 0.00116787
174.0, 0.0196278
180.0, 0.0109042
186.0, 0.04438
192.0, 0.0318565
198.0, 0.044156
204.0, 0.060434
210.0, 0.0217204
216.0, 0.00250362
222.0, 0.00309572
228.0, 0.00741252
234.0, 0.00550351
240.0, 0.0046671
246.0, 0.0128147
252.0, 0.00970534
258.0, 0.00220369
264.0, 0.0162904
270.0, 0.0253564
276.0, 0.0374356
282.0, 0.0547837
288.0, 0.072815
294.0, 0.0806441
300.0, 0.0956849
306.0, 0.10278
312.0, 0.109411
318.0, 0.0923229
324.0, 0.0485932
330.0, 0.0419332
336.0, 0.016534
342.0, 0.0129032
348.0, 0.0165842
354.0, 0.00440832
360.0, 0.00198682
366.0, 0.00270338
372.0, 0.0151894
378.0, 0.0161481
384.0, 0.0062852
390.0, 0.0696519
396.0, 0.0943087
402.0, 0.147495
408.0, 0.0941345
414.0, 0.0289418
420.0, 0.0319179
426.0, 0.017329
432.0, 0.019579
438.0, 0.00135732
444.0, 0.00512213
450.0, 0.00511855
456.0, 0.00762125
462.0, 0.00564168
468.0, 0.00170074
474.0, 0.00631365
480.0, 0.000966667
486.0, 0.0195304
492.0, 0.0152236
498.0, 0.0238342
504.0, 0.0374503
510.0, 0.0406479
516.0, 0.0994979
522.0, 0.12371
528.0, 0.187114
534.0, 0.247686
540.0, 0.263562
546.0, 0.251239
552.0, 0.206803
558.0, 0.130369
564.0, 0.106462
570.0, 0.0447615
576.0, 0.0109551
582.0, 0.00221487
588.0, 0.00344237
594.0, 0.00666917
600.0, 0.00314199
606.0, 0.0200705
612.0, 0.0377328
618.0, 0.0609626
624.0, 0.118685
630.0, 0.151836
636.0, 0.206756
642.0, 0.31814
648.0, 0.46258
654.0, 0.662002
660.0, 0.88152
666.0, 0.985364
672.0, 0.95023
678.0, 0.768651
684.0, 0.576822
690.0, 0.408937
696.0, 0.286732
702.0, 0.178636
708.0, 0.108258
714.0, 0.0692921
720.0, 0.0350209
726.0, 0.00670837
732.0, 0.00935817
738.0, 0.00364254
744.0, 0.00609013
750.0, 0.0205704
756.0, 0.0141556
762.0, 0.020169
768.0, 0.0236822
774.0, 0.0283838
780.0, 0.0138578
786.0, 0.0159317
792.0, 0.00264171
798.0, 0.0123001
804.0, 0.00737052
810.0, 0.00317732
816.0, 0.0159432
822.0, 0.0374167
828.0, 0.00856448
834.0, 0.0183133
840.0, 0.0185882
846.0, 0.0338978
852.0, 0.018889
858.0, 0.0228481
864.0, 0.019354
870.0, 0.00656779
876.0, 0.0189632
882.0, 0.0198954
888.0, 0.031989
894.0, 0.0267952
900.0, 0.0213271
906.0, 0.0164774
912.0, 0.0135428
918.0, 0.00516815
924.0, 0.0235845
930.0, 0.000956397
936.0, 0.00311398
942.0, 0.0118962
948.0, 0.0255365
954.0, 0.0109578
960.0, 0.00459596
966.0, 0.0210257
972.0, 0.0233276
978.0, 0.0134036
984.0, 0.015817
990.0, 0.00280192
996.0, 0.0110153
1002.0, 0.00214794
1008.0, 0.0045516
1014.0, 0.0180828
1020.0, 0.00629749
1026.0, 0.0155301
1032.0, 0.00763646
1038.0, 0.0225821
1044.0, 0.0209161
1050.0, 0.0214758
1056.0, 0.00688074
1062.0, 0.00675989
1068.0, 0.0119902
1074.0, 0.0203182
1080.0, 0.0132738
1086.0, 0.0168793
1092.0, 0.00245964
1098.0, 0.0113346
1104.0, 0.0142996
1110.0, 0.0168897
1116.0, 0.00650319
1122.0, 0.0097524
1128.0, 0.0173939
1134.0, 0.0173589
1140.0, 0.0186824
1146.0, 0.00684186
1152.0, 0.00502775
1158.0, 0.0121105
1164.0, 0.0146216
1170.0, 0.0134157
1176.0, 0.0146318
1182.0, 0.0154377
1188.0, 0.00251105
1194.0, 0.00530022
1200.0, 0.0195183
1206.0, 0.00936164
1212.0, 0.020404
1218.0, 0.0242713
1224.0, 0.0185994
1230.0, 0.00278705
1236.0, 0.0103587
1242.0, 0.0318223
1248.0, 0.011835
1254.0, 0.0260928
1260.0, 0.033661
1266.0, 0.0140098
1272.0, 0.0185589
1278.0, 0.00299943
1284, 0.0
1290, 0.0
1296, 0.0
1302, 0.0
1308, 0.0
1314, 0.0
1320, 0.0
1326, 0.0
1332, 0.0
1338, 0.0
1344, 0.0
1350, 0.0
1356, 0.0
1362, 0.0
1368, 0.0
1374, 0.0
1380, 0.0
1386, 0.0
1392, 0.0
1398, 0.0
1404, 0.0
1410, 0.0
1416, 0.0
1422, 0.0
1428, 0.0
1434, 0.0
1440, 0.0
1446, 0.0
1452, 0.0
1458, 0.0
1464, 0.0
1470, 0.0
1476, 0.0
1482, 0.0
1488, 0.0
1494, 0.0
1500, 0.0
1506, 0.0
1512, 0.0
1518, 0.0
1524, 0.0
1530, 0.0
1536, 0.0
1542, 0.0
1548, 0.0
1554, 0.0
1560, 0.0
1566, 0.0
1572, 0.0
1578, 0.0
1584, 0.0
1590, 0.0
1596, 0.0
1599, 0.0