File: raw data/Dataset_2/Ferrohogbomite2N2S/Ferrohogbomite2N2S__R070156__Raman__532__0__unoriented__Raman_Data_Processed__19307.txt
30, 0.0
36, 0.0
42, 0.0
48, 0.0
54, 0.0
60, 0.0
66, 0.0
72, 0.0
78, 0.0
84, 0.0
90, 0.0
96, 0.0
102, 0.0
108, 0.0
114, 0.0
120, 0.0
126, 0.0
132, 0.0
138.0, 0.00548302
144.0, 0.0011217
150.0, 0.0427452
156.0, 0.0637974
162.0, 0.0554518
168.0, 0.0213719
174.0, 0.0463234
180.0, 0.0632927
186.0, 0.0787492
192.0, 0.0894071
198.0, 0.0780823
204.0, 0.0358321
210.0, 0.0372859
216.0, 0.0195505
222.0, 0.000972009
228.0, 0.00767512
234.0, 0.00459005
240.0, 0.00253453
246.0, 0.00545836
252.0, 0.0151857
258.0, 0.0397472
264.0, 0.0145006
270.0, 0.0119715
276.0, 0.0375817
282.0, 0.0825229
288.0, 0.0612253
294.0, 0.0776117
300.0, 0.102655
306.0, 0.128463
312.0, 0.11219
318.0, 0.112438
324.0, 0.0679017
330.0, 0.0564578
336.0, 0.0262872
342.0, 0.0421585
348.0, 0.00952619
354.0, 0.0300923
360.0, 0.00350408
366.0, 0.00962099
372.0, 0.0318962
378.0, 0.0353893
384.0, 0.0530878
390.0, 0.0860084
396.0, 0.151575
402.0, 0.174493
408.0, 0.113209
414.0, 0.0450835
420.0, 0.0385768
426.0, 0.00745711
432.0, 0.013022
438.0, 0.00207056
444.0, 0.0196821
450.0, 0.0223144
456.0, 0.0236481
462.0, 0.024578
468.0, 0.00504665
474.0, 0.0246914
480.0, 0.0111407
486.0, 0.0143708
492.0, 0.0115512
498.0, 0.040367
504.0, 0.0521395
510.0, 0.0468627
516.0, 0.0649868
522.0, 0.113715
528.0, 0.188537
534.0, 0.222873
540.0, 0.237336
546.0, 0.245924
552.0, 0.217566
558.0, 0.165399
564.0, 0.0857648
570.0, 0.0563752
576.0, 0.0383561
582.0, 0.0261179
588.0, 0.00705992
594.0, 0.00487907
600.0, 0.0132192
606.0, 0.0228905
612.0, 0.00649253
618.0, 0.0692315
624.0, 0.051465
630.0, 0.113464
636.0, 0.158793
642.0, 0.299013
648.0, 0.393122
654.0, 0.592511
660.0, 0.788496
666.0, 0.949399
672.0, 0.946683
678.0, 0.807852
684.0, 0.59369
690.0, 0.415025
696.0, 0.287015
702.0, 0.17342
708.0, 0.105493
714.0, 0.0547347
720.0, 0.0142221
726.0, 0.00566806
732.0, 0.00480028
738.0, 0.0044869
744.0, 0.0107768
750.0, 0.0268509
756.0, 0.0456682
762.0, 0.0281853
768.0, 0.0391729
774.0, 0.00933336
780.0, 0.01783
786.0, 0.0309943
792.0, 0.0136585
798.0, 0.0351546
804.0, 0.0349993
810.0, 0.0277555
816.0, 0.0140913
822.0, 0.0146871
828.0, 0.0233118
834.0, 0.03997
840.0, 0.0364297
846.0, 0.039963
852.0, 0.00923465
858.0, 0.0362955
864.0, 0.0063926
870.0, 0.0306663
876.0, 0.0129258
882.0, 0.0522676
888.0, 0.0168997
894.0, 0.0279082
900.0, 0.0191183
906.0, 0.021909
912.0, 0.0454509
918.0, 0.0271328
924.0, 0.0165071
930.0, 0.0227677
936.0, 0.0211977
942.0, 0.0198778
948.0, 0.0147706
954.0, 0.00575484
960.0, 0.0179357
966.0, 0.0261483
972.0, 0.0422995
978.0, 0.0428862
984.0, 0.0432808
990.0, 0.0209296
996.0, 0.0249666
1002.0, 0.031517
1008.0, 0.00756915
1014.0, 0.0372041
1020.0, 0.0381936
1026.0, 0.00418583
1032.0, 0.03619
1038.0, 0.0376613
1044.0, 0.0433849
1050.0, 0.0063033
1056.0, 0.0143143
1062.0, 0.0115974
1068.0, 0.0309914
1074.0, 0.0162523
1080.0, 0.0144746
1086.0, 0.026026
1092.0, 0.0416931
1098.0, 0.0185489
1104.0, 0.0169193
1110.0, 0.026267
1116.0, 0.0271493
1122.0, 0.0167704
1128.0, 0.00582903
1134.0, 0.0107027
1140.0, 0.0185916
1146.0, 0.043383
1152.0, 0.0264108
1158.0, 0.0365468
1164.0, 0.00575589
1170.0, 0.00682125
1176.0, 0.0205002
1182.0, 0.0163616
1188.0, 0.0314606
1194.0, 0.0393605
1200.0, 0.0316725
1206.0, 0.0175799
1212.0, 0.0278328
1218.0, 0.036043
1224.0, 0.0375409
1230.0, 0.00778239
1236.0, 0.0281874
1242.0, 0.0255038
1248.0, 0.0191797
1254.0, 0.0205558
1260.0, 0.0218146
1266.0, 0.0327553
1272.0, 0.0201746
1278, 0.0
1284, 0.0
1290, 0.0
1296, 0.0
1302, 0.0
1308, 0.0
1314, 0.0
1320, 0.0
1326, 0.0
1332, 0.0
1338, 0.0
1344, 0.0
1350, 0.0
1356, 0.0
1362, 0.0
1368, 0.0
1374, 0.0
1380, 0.0
1386, 0.0
1392, 0.0
1398, 0.0
1404, 0.0
1410, 0.0
1416, 0.0
1422, 0.0
1428, 0.0
1434, 0.0
1440, 0.0
1446, 0.0
1452, 0.0
1458, 0.0
1464, 0.0
1470, 0.0
1476, 0.0
1482, 0.0
1488, 0.0
1494, 0.0
1500, 0.0
1506, 0.0
1512, 0.0
1518, 0.0
1524, 0.0
1530, 0.0
1536, 0.0
1542, 0.0
1548, 0.0
1554, 0.0
1560, 0.0
1566, 0.0
1572, 0.0
1578, 0.0
1584, 0.0
1590, 0.0
1596, 0.0
1599, 0.0