File: raw data/Dataset_2/Ferrohogbomite2N2S/Ferrohogbomite2N2S__R061017__Raman__785__0__unoriented__Raman_Data_Processed__19322.txt
30, 0.0
36, 0.0
42, 0.0
48, 0.0
54, 0.0
60, 0.0
66, 0.0
72, 0.0
78, 0.0
84, 0.0
90, 0.0
96, 0.0
102, 0.0
108, 0.0
114, 0.0
120, 0.0
126, 0.0
132, 0.0
138, 0.0
144, 0.0
150, 0.0
156, 0.0
162, 0.0
168, 0.0
174, 0.0
180.0, 0.00079593
186.0, 0.0155381
192.0, 0.0469996
198.0, 0.048621
204.0, 0.0359688
210.0, 0.00889373
216.0, 0.00044786
222.0, 0.00109865
228.0, 0.000877849
234.0, 0.00601982
240.0, 0.0213129
246.0, 0.0142624
252.0, 0.0297428
258.0, 0.0404931
264.0, 0.0460673
270.0, 0.0630088
276.0, 0.0479192
282.0, 0.0511255
288.0, 0.0686842
294.0, 0.105642
300.0, 0.131306
306.0, 0.139093
312.0, 0.119805
318.0, 0.0928555
324.0, 0.0605026
330.0, 0.0588875
336.0, 0.0265728
342.0, 0.0203517
348.0, 0.0208018
354.0, 0.00727927
360.0, 0.010186
366.0, 0.00504982
372.0, 0.00319893
378.0, 0.00451037
384.0, 0.00422101
390.0, 0.0108748
396.0, 0.0367176
402.0, 0.0635733
408.0, 0.0338097
414.0, 0.0137936
420.0, 0.0172851
426.0, 0.00075868
432.0, 0.000368113
438.0, 0.0160252
444.0, 0.00812688
450.0, 0.00218865
456.0, 0.0123717
462.0, 0.00938875
468.0, 0.0218496
474.0, 0.0143236
480.0, 0.0183826
486.0, 0.0120202
492.0, 0.0218534
498.0, 0.0220218
504.0, 0.0173791
510.0, 0.0270881
516.0, 0.034427
522.0, 0.0456402
528.0, 0.071464
534.0, 0.0488468
540.0, 0.0564571
546.0, 0.0555331
552.0, 0.0506614
558.0, 0.020801
564.0, 0.0123726
570.0, 0.00337159
576.0, 0.00383792
582.0, 0.0095748
588.0, 0.000594894
594.0, 0.00433669
600.0, 0.00237871
606.0, 0.00639193
612.0, 0.0416984
618.0, 0.0470115
624.0, 0.0665432
630.0, 0.0994947
636.0, 0.143423
642.0, 0.224244
648.0, 0.339941
654.0, 0.540917
660.0, 0.771631
666.0, 0.960146
672.0, 0.974187
678.0, 0.843646
684.0, 0.640585
690.0, 0.469832
696.0, 0.337271
702.0, 0.235116
708.0, 0.139534
714.0, 0.0874179
720.0, 0.0497073
726.0, 0.0150272
732.0, 0.00796491
738.0, 0.00772945
744.0, 0.00447029
750.0, 0.00257845
756.0, 0.00938327
762.0, 0.00671502
768.0, 0.019444
774.0, 0.00175405
780.0, 0.00661728
786.0, 0.00568745
792.0, 0.00988097
798.0, 0.009269
804.0, 0.0123943
810.0, 0.0211398
816.0, 0.00909515
822.0, 0.0245935
828.0, 0.0129647
834.0, 0.0105498
840.0, 0.0093267
846.0, 0.0142109
852.0, 0.0098232
858.0, 0.0165267
864.0, 0.0189155
870.0, 0.00546912
876.0, 0.00511861
882.0, 0.00489327
888.0, 0.00565444
894.0, 0.0170653
900.0, 0.00686469
906.0, 0.0288463
912.0, 0.0227003
918.0, 0.0207721
924.0, 0.0194849
930.0, 0.0208331
936.0, 0.0325873
942.0, 0.0289618
948.0, 0.0268471
954.0, 0.0350623
960.0, 0.0287788
966.0, 0.0315259
972.0, 0.0230066
978.0, 0.0311812
984.0, 0.0232738
990.0, 0.0159111
996.0, 0.0186446
1002.0, 0.0146505
1008.0, 0.0225397
1014.0, 0.0313466
1020.0, 0.0135221
1026.0, 0.0192224
1032.0, 0.00799613
1038.0, 0.0230212
1044.0, 0.0206135
1050.0, 0.0230058
1056.0, 0.0122059
1062.0, 0.0127634
1068.0, 0.0177821
1074.0, 0.00625142
1080.0, 0.0252248
1086.0, 0.00588496
1092.0, 0.0176046
1098.0, 0.0265161
1104.0, 0.0216006
1110.0, 0.0300278
1116.0, 0.0158662
1122.0, 0.00639006
1128.0, 0.0228587
1134.0, 0.0122941
1140.0, 0.00505566
1146.0, 0.0213116
1152.0, 0.00493027
1158.0, 0.0143555
1164.0, 0.00933458
1170.0, 0.031596
1176.0, 0.0168756
1182.0, 0.0122259
1188.0, 0.00867085
1194.0, 0.01437
1200.0, 0.00600916
1206.0, 0.00663144
1212.0, 0.00962433
1218.0, 0.0163036
1224.0, 0.0281341
1230.0, 0.0147878
1236.0, 0.0220296
1242.0, 0.0352663
1248.0, 0.0354355
1254.0, 0.023213
1260.0, 0.0150459
1266.0, 0.0372305
1272, 0.0
1278, 0.0
1284, 0.0
1290, 0.0
1296, 0.0
1302, 0.0
1308, 0.0
1314, 0.0
1320, 0.0
1326, 0.0
1332, 0.0
1338, 0.0
1344, 0.0
1350, 0.0
1356, 0.0
1362, 0.0
1368, 0.0
1374, 0.0
1380, 0.0
1386, 0.0
1392, 0.0
1398, 0.0
1404, 0.0
1410, 0.0
1416, 0.0
1422, 0.0
1428, 0.0
1434, 0.0
1440, 0.0
1446, 0.0
1452, 0.0
1458, 0.0
1464, 0.0
1470, 0.0
1476, 0.0
1482, 0.0
1488, 0.0
1494, 0.0
1500, 0.0
1506, 0.0
1512, 0.0
1518, 0.0
1524, 0.0
1530, 0.0
1536, 0.0
1542, 0.0
1548, 0.0
1554, 0.0
1560, 0.0
1566, 0.0
1572, 0.0
1578, 0.0
1584, 0.0
1590, 0.0
1596, 0.0
1599, 0.0