File: raw data/Dataset_2/Ferrohogbomite2N2S/Ferrohogbomite2N2S__R070156__Raman__785__0__unoriented__Raman_Data_Processed__19309.txt
30, 0.0
36, 0.0
42, 0.0
48, 0.0
54, 0.0
60, 0.0
66, 0.0
72, 0.0
78, 0.0
84, 0.0
90, 0.0
96, 0.0
102, 0.0
108, 0.0
114, 0.0
120, 0.0
126, 0.0
132, 0.0
138, 0.0
144, 0.0
150.0, 0.0245137
156.0, 0.010057
162.0, 0.0362032
168.0, 0.0631167
174.0, 0.0607939
180.0, 0.0684606
186.0, 0.087133
192.0, 0.0700311
198.0, 0.0715187
204.0, 0.0297892
210.0, 0.0200717
216.0, 0.0125546
222.0, 0.0147646
228.0, 0.00474459
234.0, 0.00116685
240.0, 0.0169903
246.0, 0.00114348
252.0, 0.00369227
258.0, 0.00807391
264.0, 0.01626
270.0, 0.0215336
276.0, 0.0389869
282.0, 0.053707
288.0, 0.0708991
294.0, 0.0935593
300.0, 0.114411
306.0, 0.0966677
312.0, 0.10758
318.0, 0.0859823
324.0, 0.0666296
330.0, 0.0443528
336.0, 0.0377487
342.0, 0.0155238
348.0, 0.0271711
354.0, 0.0159065
360.0, 0.00419392
366.0, 0.0107655
372.0, 0.0031841
378.0, 0.0163343
384.0, 0.02416
390.0, 0.0113058
396.0, 0.0535099
402.0, 0.0592271
408.0, 0.0299684
414.0, 0.0253971
420.0, 0.0154919
426.0, 0.0184973
432.0, 0.00124233
438.0, 0.00700481
444.0, 0.00958936
450.0, 0.00851742
456.0, 0.0124615
462.0, 0.00219497
468.0, 0.0139535
474.0, 0.00142741
480.0, 0.00885932
486.0, 0.0199919
492.0, 0.00531278
498.0, 0.0112829
504.0, 0.0203498
510.0, 0.0330934
516.0, 0.0342896
522.0, 0.046011
528.0, 0.0589294
534.0, 0.0625829
540.0, 0.0513463
546.0, 0.0491176
552.0, 0.0430258
558.0, 0.00779748
564.0, 0.0158542
570.0, 0.00279168
576.0, 0.00894955
582.0, 0.00276393
588.0, 0.0145559
594.0, 0.00365589
600.0, 0.0118245
606.0, 0.0110723
612.0, 0.0310458
618.0, 0.048683
624.0, 0.0775025
630.0, 0.0907893
636.0, 0.139086
642.0, 0.232609
648.0, 0.35814
654.0, 0.562586
660.0, 0.773872
666.0, 0.944917
672.0, 0.964898
678.0, 0.816336
684.0, 0.637766
690.0, 0.455718
696.0, 0.333232
702.0, 0.236447
708.0, 0.139473
714.0, 0.084109
720.0, 0.0314551
726.0, 0.00225843
732.0, 0.00106285
738.0, 0.00770289
744.0, 0.00119771
750.0, 0.00210633
756.0, 0.0127371
762.0, 0.00724077
768.0, 0.0035693
774.0, 0.00697561
780.0, 0.0123231
786.0, 0.00685402
792.0, 0.0103904
798.0, 0.0117675
804.0, 0.00903665
810.0, 0.0185504
816.0, 0.0165733
822.0, 0.0217424
828.0, 0.00674242
834.0, 0.0219048
840.0, 0.0240642
846.0, 0.0148093
852.0, 0.0225778
858.0, 0.00782952
864.0, 0.0113061
870.0, 0.0082415
876.0, 0.0183197
882.0, 0.0137734
888.0, 0.0230455
894.0, 0.0126269
900.0, 0.0171924
906.0, 0.0169969
912.0, 0.0112274
918.0, 0.0121927
924.0, 0.00392583
930.0, 0.0163273
936.0, 0.0132275
942.0, 0.0135708
948.0, 0.00262958
954.0, 0.00817419
960.0, 0.00518656
966.0, 0.0126341
972.0, 0.00441036
978.0, 0.00259379
984.0, 0.00934368
990.0, 0.0145671
996.0, 0.0129508
1002.0, 0.0113807
1008.0, 0.0120313
1014.0, 0.0063222
1020.0, 0.0104351
1026.0, 0.011284
1032.0, 0.0013598
1038.0, 0.00905599
1044.0, 0.013048
1050.0, 0.0148985
1056.0, 0.0176472
1062.0, 0.0101872
1068.0, 0.00568741
1074.0, 0.00657987
1080.0, 0.0176905
1086.0, 0.0111055
1092.0, 0.00468829
1098.0, 0.0025232
1104.0, 0.0198291
1110.0, 0.00601017
1116.0, 0.00341844
1122.0, 0.0162025
1128.0, 0.010572
1134.0, 0.0183528
1140.0, 0.0224204
1146.0, 0.0112972
1152.0, 0.019248
1158.0, 0.0119158
1164.0, 0.0105489
1170.0, 0.00685822
1176.0, 0.0159526
1182.0, 0.0205922
1188.0, 0.0137567
1194.0, 0.0171265
1200.0, 0.0137452
1206.0, 0.0144165
1212.0, 0.00565633
1218.0, 0.00219421
1224.0, 0.00448417
1230, 0.0
1236, 0.0
1242, 0.0
1248, 0.0
1254, 0.0
1260, 0.0
1266, 0.0
1272, 0.0
1278, 0.0
1284, 0.0
1290, 0.0
1296, 0.0
1302, 0.0
1308, 0.0
1314, 0.0
1320, 0.0
1326, 0.0
1332, 0.0
1338, 0.0
1344, 0.0
1350, 0.0
1356, 0.0
1362, 0.0
1368, 0.0
1374, 0.0
1380, 0.0
1386, 0.0
1392, 0.0
1398, 0.0
1404, 0.0
1410, 0.0
1416, 0.0
1422, 0.0
1428, 0.0
1434, 0.0
1440, 0.0
1446, 0.0
1452, 0.0
1458, 0.0
1464, 0.0
1470, 0.0
1476, 0.0
1482, 0.0
1488, 0.0
1494, 0.0
1500, 0.0
1506, 0.0
1512, 0.0
1518, 0.0
1524, 0.0
1530, 0.0
1536, 0.0
1542, 0.0
1548, 0.0
1554, 0.0
1560, 0.0
1566, 0.0
1572, 0.0
1578, 0.0
1584, 0.0
1590, 0.0
1596, 0.0
1599, 0.0