File: raw data/Dataset_2/GlassY/GlassY__R110073__Raman__532__0__unoriented__Raman_Data_Processed__35478.txt
30, 0.0
36, 0.0
42, 0.0
48, 0.0
54, 0.0
60, 0.0
66, 0.0
72, 0.0
78, 0.0
84, 0.0
90, 0.0
96, 0.0
102, 0.0
108, 0.0
114, 0.0
120, 0.0
126, 0.0
132, 0.0
138, 0.0
144, 0.0
150, 0.0
156, 0.0
162, 0.0
168, 0.0
174, 0.0
180, 0.0
186, 0.0
192.0, 0.990446
198.0, 0.99647
204.0, 0.996963
210.0, 0.996383
216.0, 0.983374
222.0, 0.980941
228.0, 0.968104
234.0, 0.953017
240.0, 0.942015
246.0, 0.945424
252.0, 0.944842
258.0, 0.945491
264.0, 0.925294
270.0, 0.94037
276.0, 0.948173
282.0, 0.922173
288.0, 0.928866
294.0, 0.934812
300.0, 0.937169
306.0, 0.937466
312.0, 0.934883
318.0, 0.944376
324.0, 0.95346
330.0, 0.940926
336.0, 0.953186
342.0, 0.951353
348.0, 0.956446
354.0, 0.949843
360.0, 0.96095
366.0, 0.962329
372.0, 0.962109
378.0, 0.951394
384.0, 0.956066
390.0, 0.960218
396.0, 0.95603
402.0, 0.947681
408.0, 0.951169
414.0, 0.956858
420.0, 0.940044
426.0, 0.949863
432.0, 0.952031
438.0, 0.947966
444.0, 0.958942
450.0, 0.959256
456.0, 0.957568
462.0, 0.95725
468.0, 0.952826
474.0, 0.951467
480.0, 0.948908
486.0, 0.951012
492.0, 0.943416
498.0, 0.940124
504.0, 0.932352
510.0, 0.921132
516.0, 0.909849
522.0, 0.884692
528.0, 0.880071
534.0, 0.849952
540.0, 0.827665
546.0, 0.808548
552.0, 0.789183
558.0, 0.770916
564.0, 0.760079
570.0, 0.745791
576.0, 0.730538
582.0, 0.70578
588.0, 0.676832
594.0, 0.657828
600.0, 0.624238
606.0, 0.592723
612.0, 0.576483
618.0, 0.558656
624.0, 0.53763
630.0, 0.5277
636.0, 0.526298
642.0, 0.512547
648.0, 0.502993
654.0, 0.494891
660.0, 0.484704
666.0, 0.465194
672.0, 0.444863
678.0, 0.433515
684.0, 0.411249
690.0, 0.396544
696.0, 0.372383
702.0, 0.357656
708.0, 0.341391
714.0, 0.322252
720.0, 0.304805
726.0, 0.295002
732.0, 0.288923
738.0, 0.274787
744.0, 0.264687
750.0, 0.250172
756.0, 0.24615
762.0, 0.237761
768.0, 0.224456
774.0, 0.217032
780.0, 0.205089
786.0, 0.191377
792.0, 0.178895
798.0, 0.164586
804.0, 0.152709
810.0, 0.139889
816.0, 0.138032
822.0, 0.129684
828.0, 0.12316
834.0, 0.130078
840.0, 0.140073
846.0, 0.161223
852.0, 0.181994
858.0, 0.212264
864.0, 0.246291
870.0, 0.276587
876.0, 0.309118
882.0, 0.336045
888.0, 0.370792
894.0, 0.402972
900.0, 0.432022
906.0, 0.465374
912.0, 0.494467
918.0, 0.524239
924.0, 0.550569
930.0, 0.578189
936.0, 0.59005
942.0, 0.614706
948.0, 0.635849
954.0, 0.65791
960.0, 0.680498
966.0, 0.702551
972.0, 0.709026
978.0, 0.724835
984.0, 0.738423
990.0, 0.750566
996.0, 0.762357
1002.0, 0.769187
1008.0, 0.776498
1014.0, 0.773713
1020.0, 0.769975
1026.0, 0.756264
1032.0, 0.745567
1038.0, 0.723303
1044.0, 0.697528
1050.0, 0.669672
1056.0, 0.634664
1062.0, 0.591056
1068.0, 0.544512
1074.0, 0.501286
1080.0, 0.459231
1086.0, 0.418085
1092.0, 0.378898
1098.0, 0.339149
1104.0, 0.299281
1110.0, 0.268366
1116.0, 0.240831
1122.0, 0.214507
1128.0, 0.190592
1134.0, 0.165139
1140.0, 0.145083
1146.0, 0.130807
1152.0, 0.113629
1158.0, 0.0945827
1164.0, 0.0878879
1170.0, 0.0782255
1176.0, 0.0728888
1182.0, 0.0589568
1188.0, 0.0533685
1194.0, 0.0398581
1200.0, 0.0402426
1206.0, 0.0328621
1212.0, 0.0273053
1218.0, 0.0223044
1224.0, 0.0228627
1230.0, 0.0192744
1236.0, 0.0176782
1242.0, 0.00955931
1248.0, 0.0106088
1254.0, 0.0111365
1260.0, 0.0139081
1266.0, 0.0109467
1272.0, 0.0121898
1278.0, 0.0132012
1284.0, 0.00851205
1290.0, 0.00548686
1296.0, 0.00371836
1302.0, 0.00311156
1308, 0.0
1314, 0.0
1320, 0.0
1326, 0.0
1332, 0.0
1338, 0.0
1344, 0.0
1350, 0.0
1356, 0.0
1362, 0.0
1368, 0.0
1374, 0.0
1380, 0.0
1386, 0.0
1392, 0.0
1398, 0.0
1404, 0.0
1410, 0.0
1416, 0.0
1422, 0.0
1428, 0.0
1434, 0.0
1440, 0.0
1446, 0.0
1452, 0.0
1458, 0.0
1464, 0.0
1470, 0.0
1476, 0.0
1482, 0.0
1488, 0.0
1494, 0.0
1500, 0.0
1506, 0.0
1512, 0.0
1518, 0.0
1524, 0.0
1530, 0.0
1536, 0.0
1542, 0.0
1548, 0.0
1554, 0.0
1560, 0.0
1566, 0.0
1572, 0.0
1578, 0.0
1584, 0.0
1590, 0.0
1596, 0.0
1599, 0.0