File: raw data/Dataset_2/Pyroxferroite/Pyroxferroite__R141080__Raman__532__0__unoriented__Raman_Data_Processed__40377.txt
30, 0.0
36, 0.0
42, 0.0
48, 0.0
54, 0.0
60, 0.0
66, 0.0
72, 0.0
78, 0.0
84, 0.0
90, 0.0
96, 0.0
102.0, 0.00106659
108.0, 0.0463307
114.0, 0.123282
120.0, 0.203202
126.0, 0.180169
132.0, 0.192523
138.0, 0.19302
144.0, 0.146144
150.0, 0.121656
156.0, 0.108038
162.0, 0.0906539
168.0, 0.0802791
174.0, 0.07045
180.0, 0.0579699
186.0, 0.0420705
192.0, 0.029327
198.0, 0.028416
204.0, 0.0309933
210.0, 0.0391941
216.0, 0.038955
222.0, 0.0743696
228.0, 0.0405832
234.0, 0.00571987
240.0, 0.00199225
246.0, 0.000607727
252.0, 0.007915
258.0, 0.00821984
264.0, 0.00186185
270.0, 0.00781631
276.0, 0.00788073
282.0, 0.0130207
288.0, 0.050568
294.0, 0.0494208
300.0, 0.0473533
306.0, 0.0403508
312.0, 0.0317131
318.0, 0.0357302
324.0, 0.0517425
330.0, 0.079302
336.0, 0.121419
342.0, 0.146271
348.0, 0.152624
354.0, 0.145933
360.0, 0.13349
366.0, 0.10833
372.0, 0.0877908
378.0, 0.0772813
384.0, 0.0700133
390.0, 0.0602539
396.0, 0.0493248
402.0, 0.0382629
408.0, 0.0279208
414.0, 0.0139258
420.0, 0.00298109
426.0, 0.000943214
432.0, 0.00506618
438.0, 0.00270799
444.0, 0.00033815
450.0, 0.00640096
456.0, 0.000528272
462.0, 0.00223995
468.0, 0.00413647
474.0, 0.00771487
480.0, 0.00951155
486.0, 0.0171923
492.0, 0.024672
498.0, 0.0354051
504.0, 0.040627
510.0, 0.0604
516.0, 0.0870936
522.0, 0.105248
528.0, 0.116107
534.0, 0.13831
540.0, 0.191418
546.0, 0.231361
552.0, 0.235882
558.0, 0.213993
564.0, 0.171864
570.0, 0.124114
576.0, 0.08577
582.0, 0.0537954
588.0, 0.0260491
594.0, 0.00740764
600.0, 0.00379132
606.0, 0.00653832
612.0, 0.0051469
618.0, 0.00307004
624.0, 0.0246859
630.0, 0.0397833
636.0, 0.0837863
642.0, 0.158189
648.0, 0.297466
654.0, 0.513371
660.0, 0.758294
666.0, 0.962137
672.0, 0.926985
678.0, 0.572992
684.0, 0.309957
690.0, 0.18786
696.0, 0.148935
702.0, 0.129517
708.0, 0.101609
714.0, 0.0764845
720.0, 0.0575408
726.0, 0.0317065
732.0, 0.0135972
738.0, 0.00860948
744.0, 0.00251328
750.0, 0.0012016
756.0, 0.00154493
762.0, 0.00625734
768.0, 0.0115626
774.0, 0.0103876
780.0, 0.0092564
786.0, 0.00491565
792.0, 0.00208412
798.0, 0.00102632
804.0, 0.00132052
810.0, 0.0014604
816.0, 0.000223979
822.0, 0.00078142
828.0, 0.00106829
834.0, 0.00291329
840.0, 0.0117704
846.0, 0.0204879
852.0, 0.0243662
858.0, 0.0269098
864.0, 0.0238569
870.0, 0.0221879
876.0, 0.014295
882.0, 0.00827433
888.0, 0.00319125
894.0, 0.00908832
900.0, 0.0105792
906.0, 0.000610861
912.0, 0.0132271
918.0, 0.0308653
924.0, 0.053139
930.0, 0.0784226
936.0, 0.10112
942.0, 0.121503
948.0, 0.139308
954.0, 0.182079
960.0, 0.260102
966.0, 0.397649
972.0, 0.564964
978.0, 0.659881
984.0, 0.68462
990.0, 0.728264
996.0, 0.691813
1002.0, 0.556177
1008.0, 0.399326
1014.0, 0.269852
1020.0, 0.168137
1026.0, 0.0990423
1032.0, 0.0610584
1038.0, 0.0423439
1044.0, 0.0277433
1050.0, 0.0134159
1056.0, 0.00424573
1062.0, 0.00378875
1068.0, 0.00601688
1074.0, 0.00623521
1080.0, 0.000484106
1086.0, 0.0023921
1092.0, 0.00723404
1098.0, 0.0175823
1104.0, 0.0255948
1110.0, 0.028519
1116.0, 0.0276164
1122.0, 0.0236186
1128.0, 0.0164169
1134.0, 0.0087803
1140.0, 0.00854604
1146.0, 0.00479115
1152.0, 0.00498061
1158.0, 0.00469093
1164.0, 0.00632636
1170.0, 0.00583234
1176.0, 0.00779587
1182.0, 0.00824523
1188.0, 0.00805001
1194.0, 0.00617634
1200.0, 0.00694558
1206.0, 0.00566521
1212.0, 0.00435242
1218.0, 0.00358459
1224.0, 0.00369469
1230.0, 0.0036663
1236.0, 0.00226952
1242.0, 0.00110931
1248.0, 0.00180931
1254.0, 0.000841316
1260.0, 0.00286977
1266.0, 0.0017623
1272.0, 0.000844126
1278.0, 0.000958387
1284.0, 0.00125561
1290.0, 0.000349598
1296.0, 0.000279192
1302, 0.0
1308, 0.0
1314, 0.0
1320, 0.0
1326, 0.0
1332, 0.0
1338, 0.0
1344, 0.0
1350, 0.0
1356, 0.0
1362, 0.0
1368, 0.0
1374, 0.0
1380, 0.0
1386, 0.0
1392, 0.0
1398, 0.0
1404, 0.0
1410, 0.0
1416, 0.0
1422, 0.0
1428, 0.0
1434, 0.0
1440, 0.0
1446, 0.0
1452, 0.0
1458, 0.0
1464, 0.0
1470, 0.0
1476, 0.0
1482, 0.0
1488, 0.0
1494, 0.0
1500, 0.0
1506, 0.0
1512, 0.0
1518, 0.0
1524, 0.0
1530, 0.0
1536, 0.0
1542, 0.0
1548, 0.0
1554, 0.0
1560, 0.0
1566, 0.0
1572, 0.0
1578, 0.0
1584, 0.0
1590, 0.0
1596, 0.0
1599, 0.0