File: raw data/Dataset_2/GlassSm/GlassSm__R110078__Raman__780__0__unoriented__Raman_Data_Processed__35492.txt
30, 0.0
36, 0.0
42, 0.0
48, 0.0
54, 0.0
60, 0.0
66, 0.0
72, 0.0
78, 0.0
84, 0.0
90, 0.0
96.0, 0.998716
102.0, 0.946501
108.0, 0.93141
114.0, 0.915504
120.0, 0.89932
126.0, 0.88853
132.0, 0.865882
138.0, 0.855952
144.0, 0.842432
150.0, 0.823589
156.0, 0.819649
162.0, 0.805877
168.0, 0.792857
174.0, 0.78831
180.0, 0.778887
186.0, 0.767147
192.0, 0.760356
198.0, 0.751291
204.0, 0.744258
210.0, 0.738459
216.0, 0.731673
222.0, 0.725867
228.0, 0.718714
234.0, 0.716366
240.0, 0.710714
246.0, 0.708523
252.0, 0.697234
258.0, 0.693822
264.0, 0.690388
270.0, 0.689085
276.0, 0.68259
282.0, 0.67733
288.0, 0.6723
294.0, 0.668314
300.0, 0.66619
306.0, 0.663823
312.0, 0.66499
318.0, 0.662939
324.0, 0.655976
330.0, 0.658575
336.0, 0.65449
342.0, 0.650857
348.0, 0.654462
354.0, 0.650403
360.0, 0.651489
366.0, 0.642102
372.0, 0.638432
378.0, 0.633966
384.0, 0.634061
390.0, 0.630355
396.0, 0.626667
402.0, 0.628713
408.0, 0.615652
414.0, 0.619425
420.0, 0.621739
426.0, 0.621789
432.0, 0.621709
438.0, 0.623574
444.0, 0.620374
450.0, 0.620403
456.0, 0.619267
462.0, 0.621666
468.0, 0.620215
474.0, 0.613213
480.0, 0.607722
486.0, 0.608
492.0, 0.605082
498.0, 0.603429
504.0, 0.595172
510.0, 0.588036
516.0, 0.579282
522.0, 0.563079
528.0, 0.551196
534.0, 0.533377
540.0, 0.516543
546.0, 0.506501
552.0, 0.494675
558.0, 0.483276
564.0, 0.474464
570.0, 0.465174
576.0, 0.452254
582.0, 0.436006
588.0, 0.419069
594.0, 0.404385
600.0, 0.387993
606.0, 0.371508
612.0, 0.36013
618.0, 0.348172
624.0, 0.342168
630.0, 0.327947
636.0, 0.324343
642.0, 0.316858
648.0, 0.309352
654.0, 0.299858
660.0, 0.286916
666.0, 0.278231
672.0, 0.263843
678.0, 0.251517
684.0, 0.235721
690.0, 0.224533
696.0, 0.210491
702.0, 0.196895
708.0, 0.186195
714.0, 0.175493
720.0, 0.169409
726.0, 0.157826
732.0, 0.150373
738.0, 0.140417
744.0, 0.133735
750.0, 0.124377
756.0, 0.116287
762.0, 0.110641
768.0, 0.101732
774.0, 0.0961686
780.0, 0.084459
786.0, 0.080759
792.0, 0.0742745
798.0, 0.0640067
804.0, 0.053586
810.0, 0.0478571
816.0, 0.0415952
822.0, 0.0424275
828.0, 0.0414718
834.0, 0.0472428
840.0, 0.0516529
846.0, 0.0608044
852.0, 0.0768196
858.0, 0.0910736
864.0, 0.105081
870.0, 0.123578
876.0, 0.139798
882.0, 0.15591
888.0, 0.171711
894.0, 0.187519
900.0, 0.205389
906.0, 0.219812
912.0, 0.234311
918.0, 0.246182
924.0, 0.259498
930.0, 0.26946
936.0, 0.277291
942.0, 0.293408
948.0, 0.290719
954.0, 0.303314
960.0, 0.302657
966.0, 0.308895
972.0, 0.315425
978.0, 0.318578
984.0, 0.318264
990.0, 0.323982
996.0, 0.323986
1002.0, 0.322066
1008.0, 0.320874
1014.0, 0.314611
1020.0, 0.307272
1026.0, 0.301583
1032.0, 0.290236
1038.0, 0.276479
1044.0, 0.260725
1050.0, 0.245725
1056.0, 0.224727
1062.0, 0.211927
1068.0, 0.191431
1074.0, 0.169556
1080.0, 0.154984
1086.0, 0.132578
1092.0, 0.118631
1098.0, 0.0988222
1104.0, 0.0848471
1110.0, 0.0733701
1116.0, 0.061175
1122.0, 0.0566217
1128.0, 0.0471231
1134.0, 0.0386756
1140.0, 0.0377197
1146.0, 0.0309325
1152.0, 0.0270099
1158.0, 0.0212263
1164.0, 0.0209462
1170.0, 0.0177566
1176.0, 0.017101
1182.0, 0.0126766
1188.0, 0.0117352
1194.0, 0.0121685
1200.0, 0.00737777
1206.0, 0.00773171
1212.0, 0.00927436
1218.0, 0.00267383
1224.0, 0.000388798
1230.0, 0.0079319
1236.0, 0.000385292
1242.0, 0.00394606
1248.0, 0.0101528
1254.0, 0.0045775
1260.0, 0.00795788
1266.0, 0.00814403
1272.0, 0.0106204
1278.0, 0.0093431
1284.0, 0.00670462
1290, 0.0
1296, 0.0
1302, 0.0
1308, 0.0
1314, 0.0
1320, 0.0
1326, 0.0
1332, 0.0
1338, 0.0
1344, 0.0
1350, 0.0
1356, 0.0
1362, 0.0
1368, 0.0
1374, 0.0
1380, 0.0
1386, 0.0
1392, 0.0
1398, 0.0
1404, 0.0
1410, 0.0
1416, 0.0
1422, 0.0
1428, 0.0
1434, 0.0
1440, 0.0
1446, 0.0
1452, 0.0
1458, 0.0
1464, 0.0
1470, 0.0
1476, 0.0
1482, 0.0
1488, 0.0
1494, 0.0
1500, 0.0
1506, 0.0
1512, 0.0
1518, 0.0
1524, 0.0
1530, 0.0
1536, 0.0
1542, 0.0
1548, 0.0
1554, 0.0
1560, 0.0
1566, 0.0
1572, 0.0
1578, 0.0
1584, 0.0
1590, 0.0
1596, 0.0
1599, 0.0